"eeg0","eeg1","eeg2","eeg3"
-0.48828125,-0.48828125,0.0,-0.48828125
-0.48828125,-0.9765625,-15.625,-0.48828125
30.76171875,31.73828125,41.50390625,30.76171875
-67.87109375,-69.82421875,-49.31640625,-67.87109375
320.80078125,316.89453125,9.27734375,321.2890625
-857.91015625,-875.0,801.26953125,-856.93359375
243.65234375,216.796875,984.86328125,244.140625
-1000.0,-1000.0,863.28125,-1000.0
-273.92578125,-672.36328125,910.64453125,-274.90234375
-807.6171875,922.36328125,901.3671875,-823.2421875
466.30859375,535.15625,898.92578125,582.51953125
-1000.0,-991.2109375,866.69921875,-1000.0
-487.3046875,-1000.0,839.35546875,-648.92578125
-975.09765625,342.28515625,849.12109375,908.69140625
955.078125,-975.5859375,857.91015625,-911.62109375
-545.8984375,-394.53125,814.94140625,-285.64453125
-1000.0,-1000.0,729.98046875,-1000.0
473.14453125,-125.48828125,756.34765625,182.6171875
-786.62109375,-822.265625,830.078125,-757.32421875
52.734375,130.859375,725.09765625,190.4296875
-1000.0,-1000.0,496.58203125,-1000.0
-118.1640625,-320.3125,483.3984375,-268.5546875
-770.99609375,-837.890625,616.69921875,-796.38671875
212.890625,313.96484375,705.078125,277.83203125
-1000.0,-1000.0,365.234375,-1000.0
-274.90234375,-667.96875,-84.9609375,-342.7734375
-821.2890625,902.34375,214.35546875,-870.1171875
571.77734375,738.28125,552.24609375,713.37890625
-1000.0,-798.33984375,219.23828125,-907.71484375
-602.05078125,-1000.0,-317.3828125,-809.08203125
938.96484375,265.13671875,-174.8046875,748.046875
-926.7578125,-865.234375,358.3984375,-848.14453125
-324.21875,-161.1328125,167.48046875,-150.390625
-1000.0,-1000.0,-498.046875,-1000.0
285.15625,-159.1796875,-541.015625,69.3359375
-761.71875,-808.10546875,-100.5859375,-757.32421875
174.8046875,203.125,-60.05859375,197.75390625
-1000.0,-1000.0,-546.875,-1000.0
-239.2578125,-369.140625,-687.01171875,-272.94921875
-787.109375,-853.515625,-365.72265625,-800.78125
249.0234375,414.0625,-148.4375,377.44140625
-1000.0,-1000.0,-493.1640625,-1000.0
-273.4375,-784.66796875,-692.87109375,-437.5
-846.19140625,759.27734375,-352.5390625,-934.5703125
694.82421875,893.06640625,-172.36328125,859.86328125
-937.98828125,-610.83984375,-494.62890625,-706.0546875
-718.75,-1000.0,-787.109375,-950.68359375
849.12109375,140.13671875,-648.4375,584.47265625
-869.62890625,-824.70703125,-364.74609375,-810.05859375
-175.78125,-16.11328125,-434.08203125,-35.64453125
-1000.0,-1000.0,-787.59765625,-1000.0
124.0234375,-203.61328125,-729.4921875,-62.5
-754.39453125,-807.6171875,-451.66015625,-760.25390625
192.87109375,231.93359375,-361.328125,190.91796875
-1000.0,-1000.0,-652.83203125,-1000.0
-273.4375,-440.4296875,-748.53515625,-186.5234375
-798.33984375,-893.06640625,-524.90234375,-822.265625
367.1875,515.625,-420.41015625,497.55859375
-1000.0,-1000.0,-648.92578125,-1000.0
-374.51171875,-881.34765625,-771.484375,-544.921875
-903.80859375,627.9296875,-659.1796875,992.1875
832.51953125,989.2578125,-335.9375,986.328125
-746.58203125,-460.44921875,-380.37109375,-485.83984375
-885.25390625,-1000.0,-812.01171875,-1000.0
668.45703125,14.16015625,-704.58984375,367.1875
-821.77734375,-806.15234375,-376.953125,-776.3671875
-58.59375,94.23828125,-452.63671875,78.61328125
-1000.0,-1000.0,-816.40625,-1000.0
9.27734375,-246.58203125,-752.9296875,-187.98828125
-758.30078125,-811.5234375,-531.25,-784.66796875
201.171875,282.2265625,-536.1328125,222.16796875
-1000.0,-1000.0,-756.8359375,-1000.0
-275.87890625,-526.85546875,-795.41015625,-272.94921875
-808.59375,-961.9140625,-580.078125,-823.73046875
473.14453125,639.6484375,-433.59375,588.37890625
-1000.0,-925.78125,-652.34375,-1000.0
-497.55859375,-948.2421875,-813.4765625,-649.4140625
-981.4453125,526.85546875,-599.12109375,907.2265625
963.37890625,-929.6875,-370.1171875,-906.25
-538.0859375,-293.9453125,-530.76171875,-282.71484375
-1000.0,-1000.0,-778.80859375,-1000.0
476.07421875,-98.6328125,-590.33203125,206.0546875
-785.64453125,-805.6640625,-424.8046875,-756.8359375
60.05859375,165.52734375,-556.15234375,188.96484375
-1000.0,-1000.0,-792.96875,-1000.0
-116.69921875,-302.24609375,-771.484375,-268.5546875
-769.53125,-826.171875,-541.015625,-795.8984375
212.40234375,347.16796875,-510.25390625,273.4375
-1000.0,-1000.0,-734.375,-1000.0
-274.90234375,-640.13671875,-781.25,-327.63671875
-821.2890625,929.19921875,-595.703125,-867.1875
573.2421875,766.11328125,-470.21484375,719.23828125
-1000.0,-767.578125,-661.1328125,-895.99609375
-602.5390625,-1000.0,-841.796875,-816.89453125
938.4765625,295.41015625,-664.55078125,741.2109375
-923.828125,-855.95703125,-406.73828125,-848.14453125
-319.3359375,-140.625,-566.89453125,-146.97265625
-1000.0,-1000.0,-833.0078125,-1000.0
283.203125,-151.85546875,-728.515625,50.29296875
-761.23046875,-805.17578125,-501.46484375,-759.27734375
181.640625,201.66015625,-327.63671875,199.70703125
-1000.0,-1000.0,-602.05078125,-1000.0
-241.69921875,-366.2109375,-787.59765625,-272.94921875
-788.0859375,-852.5390625,-528.80859375,-802.24609375
251.953125,419.921875,-481.93359375,385.25390625
-1000.0,-1000.0,-729.4921875,-1000.0
-288.57421875,-775.390625,-824.70703125,-458.0078125
-851.5625,769.53125,-641.11328125,-942.3828125
698.2421875,897.4609375,-506.34765625,863.76953125
-934.08203125,-601.5625,-649.90234375,-697.265625
-732.421875,-1000.0,-808.59375,-975.5859375
859.375,164.0625,-690.4296875,577.1484375
-923.828125,-875.48828125,-473.14453125,-863.76953125
-258.7890625,-90.8203125,-534.1796875,-122.55859375
-1000.0,-1000.0,-791.9921875,-1000.0
118.65234375,-204.1015625,-749.51171875,-72.265625
-756.34765625,-809.08203125,-522.4609375,-771.484375
193.359375,239.2578125,-530.76171875,210.9375
-1000.0,-1000.0,-781.25,-1000.0
-273.4375,-455.56640625,-717.28515625,-274.90234375
-798.828125,-901.85546875,-495.60546875,-812.01171875
369.62890625,524.4140625,-519.04296875,501.953125
-1000.0,-1000.0,-715.8203125,-1000.0
-378.90625,-882.8125,-827.63671875,-548.828125
-907.71484375,619.140625,-637.6953125,990.72265625
842.28515625,-991.2109375,-389.16015625,987.79296875
-734.86328125,-431.640625,-560.05859375,-484.86328125
-887.20703125,-1000.0,-819.3359375,-1000.0
667.96875,10.7421875,-691.89453125,369.62890625
-821.77734375,-805.17578125,-501.953125,-776.85546875
-54.19921875,101.07421875,-577.1484375,79.1015625
-1000.0,-1000.0,-814.453125,-1000.0
-0.9765625,-251.46484375,-760.25390625,-195.3125
-759.27734375,-812.5,-542.48046875,-786.1328125
202.1484375,283.203125,-510.25390625,223.14453125
-1000.0,-1000.0,-749.0234375,-1000.0
-277.34375,-536.1328125,-792.48046875,-274.4140625
-801.7578125,-964.84375,-571.77734375,-818.359375
458.0078125,625.9765625,-282.71484375,580.56640625
-1000.0,-909.1796875,-466.796875,-989.2578125
-405.2734375,-972.65625,-834.47265625,-559.5703125
-993.65234375,454.58984375,-655.2734375,896.484375
973.14453125,-905.2734375,-487.79296875,-899.90234375
-519.53125,-267.578125,-629.39453125,-253.90625
-1000.0,-1000.0,-829.58984375,-1000.0
474.609375,-91.30859375,-720.703125,160.64453125
-778.80859375,-796.875,-497.55859375,-749.0234375
42.96875,145.99609375,-559.5703125,172.36328125
-1000.0,-1000.0,-804.6875,-1000.0
-35.15625,-222.16796875,-738.76953125,-180.6640625
-781.73828125,-839.84375,-472.65625,-807.12890625
217.7734375,347.65625,-416.50390625,288.0859375
-1000.0,-1000.0,-709.9609375,-1000.0
-237.79296875,-628.90625,-815.4296875,-306.640625
-927.734375,873.046875,-617.67578125,-976.07421875
396.97265625,681.15234375,-445.80078125,528.3203125
266.6015625,430.6640625,-505.37109375,-874.0234375
-1000.0,-1000.0,-736.81640625,-804.6875
-282.2265625,-770.99609375,-803.7109375,744.62890625
-849.609375,773.4375,-593.26171875,-850.09765625
707.03125,906.73828125,-465.8203125,-145.5078125
-923.33984375,-590.33203125,-618.65234375,-1000.0
-730.46875,-1000.0,-802.24609375,42.48046875
836.9140625,144.04296875,-723.6328125,-760.25390625
-865.234375,-823.73046875,-426.7578125,200.68359375
-166.015625,-11.23046875,-432.12890625,-1000.0
-1000.0,-1000.0,-802.24609375,-273.4375
119.62890625,-204.58984375,-800.78125,-802.24609375
-753.90625,-807.12890625,-452.1484375,-769.04296875
192.87109375,235.3515625,-267.08984375,210.44921875
-1000.0,-1000.0,-678.7109375,-1000.0
-273.92578125,-441.89453125,-845.703125,-274.90234375
-799.31640625,-894.53125,-490.234375,-812.01171875
380.37109375,522.94921875,-223.14453125,507.32421875
-1000.0,-1000.0,-583.984375,-1000.0
-391.11328125,-887.20703125,-861.81640625,-554.19921875
-914.55078125,607.421875,-546.38671875,989.2578125
854.4921875,-980.46875,-286.1328125,987.3046875
-719.7265625,-412.109375,-602.5390625,-476.5625
-893.5546875,-1000.0,-869.62890625,-1000.0
659.66796875,2.9296875,-615.72265625,333.0078125
-817.87109375,-804.19921875,-359.375,-772.94921875
-41.015625,110.83984375,-596.19140625,82.03125
-1000.0,-1000.0,-840.8203125,-1000.0
-2.44140625,-259.27734375,-692.3828125,-185.05859375
-758.30078125,-813.96484375,-443.359375,-783.203125
202.63671875,288.0859375,-499.0234375,221.6796875
-1000.0,-1000.0,-741.2109375,-1000.0
-275.87890625,-553.22265625,-739.74609375,-272.94921875
-810.05859375,-982.91015625,-570.3125,-825.1953125
485.83984375,654.78515625,-528.3203125,597.16796875
-1000.0,-896.97265625,-678.22265625,-1000.0
-505.859375,-997.55859375,-765.625,-671.875
-988.76953125,443.359375,-686.03515625,885.25390625
979.00390625,-899.90234375,-545.41015625,-895.01953125
-512.6953125,-255.37109375,-599.609375,-255.37109375
-1000.0,-1000.0,-751.46484375,-1000.0
464.35546875,-94.7265625,-716.796875,153.3203125
-783.203125,-803.22265625,-505.859375,-756.8359375
72.75390625,170.41015625,-490.234375,191.89453125
-1000.0,-1000.0,-742.1875,-1000.0
-132.32421875,-308.10546875,-805.17578125,-269.53125
-771.484375,-828.125,-603.02734375,-796.38671875
214.35546875,343.75,-423.828125,298.828125
-1000.0,-1000.0,-627.9296875,-1000.0
-274.4140625,-649.4140625,-839.84375,-351.07421875
-823.2421875,917.96875,-663.0859375,-876.953125
585.44921875,770.5078125,-342.7734375,739.2578125
-1000.0,-763.18359375,-500.0,-866.2109375
-610.83984375,-1000.0,-855.95703125,-857.91015625
929.6875,287.109375,-679.19921875,696.77734375
-909.66796875,-846.19140625,-295.8984375,-841.796875
-288.57421875,-107.91015625,-448.73046875,-145.99609375
-1000.0,-1000.0,-891.11328125,-1000.0
260.25390625,-159.66796875,-726.07421875,31.25
-759.27734375,-804.19921875,-330.56640625,-761.71875
185.546875,210.44921875,-470.21484375,201.66015625
-1000.0,-1000.0,-857.91015625,-1000.0
-252.9296875,-377.9296875,-767.578125,-273.4375
-790.52734375,-856.93359375,-436.5234375,-802.24609375
269.04296875,431.15234375,-435.546875,402.34375
-1000.0,-1000.0,-748.046875,-1000.0
-294.921875,-796.38671875,-771.97265625,-455.078125
-856.93359375,738.28125,-573.73046875,-942.3828125
718.26171875,922.8515625,-531.25,875.0
-909.66796875,-568.359375,-701.66015625,-685.546875
-747.55859375,-1000.0,-773.4375,-961.9140625
818.359375,112.79296875,-625.0,570.80078125
-859.375,-813.96484375,-551.26953125,-808.59375
-155.2734375,25.87890625,-643.06640625,-27.83203125
-1000.0,-1000.0,-754.39453125,-1000.0
111.328125,-207.51953125,-702.1484375,-84.47265625
-753.90625,-805.17578125,-569.82421875,-763.671875
193.359375,242.67578125,-529.78515625,193.359375
-1000.0,-1000.0,-711.9140625,-1000.0
-273.92578125,-452.1484375,-739.2578125,-186.5234375
-800.29296875,-899.90234375,-624.51171875,-823.73046875
389.16015625,533.69140625,-527.83203125,514.16015625
-1000.0,-1000.0,-651.85546875,-1000.0
-398.92578125,-895.99609375,-826.66015625,-556.15234375
-916.9921875,603.515625,-709.9609375,985.83984375
856.4453125,-988.76953125,-464.35546875,997.0703125
-714.84375,-427.24609375,-526.3671875,-455.56640625
-903.80859375,-1000.0,-846.19140625,-1000.0
646.97265625,2.9296875,-758.7890625,311.5234375
-816.40625,-806.15234375,-375.0,-770.99609375
-41.015625,103.515625,-395.99609375,106.93359375
-1000.0,-1000.0,-824.70703125,-1000.0
-8.30078125,-253.90625,-809.08203125,-215.33203125
-759.27734375,-813.4765625,-415.52734375,-788.57421875
203.125,287.59765625,-297.36328125,225.09765625
-1000.0,-1000.0,-735.3515625,-1000.0
-275.87890625,-550.29296875,-865.72265625,-272.4609375
-811.03515625,-982.91015625,-474.609375,-826.171875
493.1640625,662.109375,-318.359375,601.07421875
-1000.0,-887.20703125,-708.49609375,-1000.0
-514.6484375,-1000.0,-874.0234375,-695.3125
-995.1171875,431.640625,-548.33984375,864.2578125
987.79296875,-894.53125,-288.57421875,-890.625
-499.0234375,-239.74609375,-586.9140625,-256.8359375
-1000.0,-1000.0,-827.63671875,-1000.0
454.58984375,-105.46875,-645.01953125,153.80859375
-781.25,-804.6875,-498.046875,-756.8359375
84.9609375,173.33984375,-623.53515625,191.89453125
-1000.0,-1000.0,-788.57421875,-1000.0
-137.20703125,-322.75390625,-682.6171875,-269.53125
-771.484375,-833.49609375,-564.94140625,-796.875
214.35546875,359.375,-594.7265625,300.29296875
-1000.0,-1000.0,-726.07421875,-1000.0
-274.4140625,-666.50390625,-728.02734375,-359.375
-824.70703125,898.92578125,-637.6953125,-879.39453125
595.21484375,799.31640625,-546.875,739.74609375
-1000.0,-735.3515625,-685.546875,-861.81640625
-618.1640625,-1000.0,-854.98046875,-874.0234375
926.7578125,277.83203125,-709.47265625,675.78125
-908.69140625,-846.19140625,-526.85546875,-838.8671875
-284.66796875,-109.86328125,-541.9921875,-145.5078125
-1000.0,-1000.0,-754.39453125,-1000.0
248.53515625,-163.57421875,-767.08984375,27.34375
-758.30078125,-805.6640625,-529.296875,-762.20703125
186.03515625,207.03125,-390.13671875,201.66015625
-1000.0,-1000.0,-648.92578125,-1000.0
-253.41796875,-377.9296875,-797.8515625,-273.92578125
-790.0390625,-857.91015625,-551.26953125,-803.7109375
280.76171875,432.12890625,-320.3125,414.55078125
-1000.0,-1000.0,-591.30859375,-1000.0
-292.96875,-778.3203125,-884.27734375,-474.609375
-856.93359375,757.32421875,-625.0,-952.63671875
728.515625,924.31640625,-285.64453125,887.20703125
-896.484375,-561.5234375,-549.8046875,-656.73828125
-753.41796875,-1000.0,-895.99609375,-1000.0
814.94140625,118.65234375,-670.41015625,529.296875
-858.3984375,-815.91796875,-315.4296875,-855.46875
-151.85546875,20.99609375,-486.81640625,-101.07421875
-1000.0,-1000.0,-847.16796875,-1000.0
104.4921875,-211.42578125,-702.63671875,-87.890625
-753.90625,-806.640625,-412.109375,-772.4609375
193.84765625,248.53515625,-518.06640625,211.9140625
-1000.0,-1000.0,-812.5,-1000.0
-274.4140625,-466.30859375,-746.09375,-274.90234375
-801.26953125,-910.64453125,-534.66796875,-813.4765625
396.97265625,552.734375,-557.6171875,518.5546875
-1000.0,-998.53515625,-729.4921875,-1000.0
-413.0859375,-903.3203125,-828.61328125,-561.5234375
-923.33984375,591.796875,-676.7578125,983.88671875
862.3046875,-976.5625,-436.03515625,997.0703125
-704.58984375,-401.85546875,-574.21875,-453.125
-921.38671875,-1000.0,-768.06640625,-1000.0
623.53515625,-14.16015625,-671.875,297.36328125
-812.98828125,-804.19921875,-567.87109375,-770.99609375
-35.64453125,118.1640625,-570.80078125,106.93359375
-1000.0,-1000.0,-734.86328125,-1000.0
-15.625,-258.30078125,-775.390625,-226.07421875
-759.765625,-812.98828125,-597.16796875,-791.9921875
203.61328125,295.8984375,-488.76953125,226.5625
-1000.0,-1000.0,-694.82421875,-1000.0
-275.87890625,-554.19921875,-803.22265625,-271.97265625
-811.5234375,-982.421875,-580.56640625,-828.125
498.53515625,651.3671875,-341.796875,615.234375
-1000.0,-892.08984375,-538.0859375,-1000.0
-529.78515625,-1000.0,-868.1640625,-721.19140625
997.55859375,411.62109375,-687.01171875,842.7734375
991.2109375,-891.6015625,-461.9140625,-887.6953125
-495.60546875,-236.328125,-601.5625,-254.8828125
-1000.0,-1000.0,-845.21484375,-1000.0
440.91796875,-100.5859375,-731.4453125,133.30078125
-779.296875,-802.734375,-466.796875,-758.30078125
97.65625,176.26953125,-520.5078125,193.359375
-1000.0,-1000.0,-798.33984375,-1000.0
-145.99609375,-320.80078125,-784.1796875,-270.5078125
-771.484375,-832.51953125,-349.12109375,-796.38671875
214.84375,362.79296875,-260.25390625,312.01171875
-1000.0,-1000.0,-742.67578125,-1000.0
-274.4140625,-686.03515625,-806.15234375,-361.328125
-825.68359375,875.9765625,-493.65234375,-882.8125
599.609375,809.08203125,-434.08203125,756.34765625
-1000.0,-720.703125,-700.1953125,-845.21484375
-628.90625,-1000.0,-814.453125,-871.58203125
916.9921875,248.53515625,-655.76171875,681.640625
-898.4375,-838.37890625,-527.83203125,-836.9140625
-268.06640625,-84.9609375,-617.1875,-130.859375
-1000.0,-1000.0,-762.6953125,-1000.0
241.2109375,-167.96875,-690.91796875,26.3671875
-757.8125,-803.7109375,-525.390625,-761.23046875
186.5234375,213.8671875,-564.453125,201.66015625
-1000.0,-1000.0,-723.6328125,-1000.0
-261.23046875,-382.8125,-730.46875,-273.92578125
-792.96875,-859.375,-603.515625,-804.19921875
292.96875,446.2890625,-531.25,420.8984375
-1000.0,-1000.0,-730.95703125,-1000.0
-312.01171875,-795.8984375,-827.1484375,-483.88671875
-863.76953125,739.2578125,-650.390625,-955.56640625
735.3515625,928.7109375,-477.5390625,887.20703125
-888.18359375,-554.6875,-603.515625,-656.73828125
-771.484375,-1000.0,-801.26953125,-1000.0
794.921875,102.05078125,-703.125,493.1640625
-854.00390625,-817.3828125,-474.609375,-793.9453125
-144.53125,20.99609375,-429.19921875,20.01953125
-1000.0,-1000.0,-756.8359375,-1000.0
97.16796875,-214.35546875,-808.10546875,-99.609375
-753.90625,-807.6171875,-483.88671875,-769.53125
194.82421875,245.60546875,-391.6015625,211.9140625
-1000.0,-1000.0,-760.7421875,-1000.0
-274.4140625,-467.7734375,-837.890625,-274.90234375
-801.7578125,-912.109375,-550.78125,-814.453125
405.2734375,549.31640625,-410.15625,523.4375
-1000.0,-999.51171875,-665.0390625,-1000.0
-418.9453125,-906.25,-864.2578125,-584.47265625
-930.17578125,576.171875,-550.78125,969.23828125
883.30078125,-953.61328125,-309.08203125,-992.67578125
-705.078125,-390.625,-622.55859375,-471.6796875
-871.58203125,-1000.0,-822.265625,-1000.0
704.1015625,64.453125,-665.0390625,373.53515625
-820.80078125,-814.94140625,-485.3515625,-779.78515625
-12.20703125,127.9296875,-593.26171875,126.46484375
-1000.0,-1000.0,-813.96484375,-1000.0
1.953125,-254.39453125,-713.8671875,-188.4765625
-866.2109375,-873.53515625,-477.05078125,-895.01953125
23.92578125,212.40234375,-458.984375,44.43359375
-1000.0,-1000.0,-696.77734375,-1000.0
-273.92578125,-580.56640625,-737.79296875,-270.5078125
-818.359375,987.3046875,-567.87109375,-833.49609375
508.7890625,692.3828125,-530.2734375,614.74609375
-1000.0,-860.3515625,-649.90234375,-1000.0
-534.66796875,-1000.0,-771.97265625,-728.515625
993.65234375,409.1796875,-693.84765625,830.56640625
-999.0234375,-888.18359375,-495.1171875,-880.859375
-475.5859375,-223.14453125,-588.8671875,-236.328125
-1000.0,-1000.0,-802.24609375,-1000.0
421.875,-115.72265625,-710.9375,132.32421875
-776.3671875,-804.19921875,-476.5625,-756.34765625
106.93359375,178.22265625,-442.3828125,193.359375
-1000.0,-1000.0,-703.125,-1000.0
-148.4375,-323.2421875,-800.78125,-271.484375
-771.484375,-833.49609375,-578.125,-796.875
214.84375,364.74609375,-452.1484375,334.9609375
-1000.0,-1000.0,-699.70703125,-1000.0
-273.92578125,-673.828125,-843.75,-385.25390625
-826.66015625,881.8359375,-622.0703125,-889.16015625
608.88671875,827.63671875,-442.3828125,758.30078125
-1000.0,-692.3828125,-633.30078125,-843.26171875
-633.7890625,-1000.0,-809.5703125,-882.8125
914.55078125,244.62890625,-675.29296875,661.1328125
-896.97265625,-840.33203125,-297.36328125,-831.0546875
-254.8828125,-83.49609375,-408.69140625,-107.421875
-1000.0,-1000.0,-870.1171875,-1000.0
218.26171875,-176.26953125,-716.30859375,9.27734375
-755.859375,-805.6640625,-322.75390625,-761.23046875
187.98828125,216.30859375,-442.3828125,203.125
-1000.0,-1000.0,-830.56640625,-1000.0
-270.5078125,-395.5078125,-774.90234375,-274.4140625
-795.41015625,-866.2109375,-554.6875,-804.19921875
301.26953125,451.171875,-523.4375,427.734375
-1000.0,-1000.0,-736.328125,-1000.0
-322.75390625,-822.265625,-755.859375,-482.91015625
-868.65234375,701.171875,-567.87109375,-953.61328125
743.1640625,951.171875,-531.25,884.765625
-878.90625,-526.3671875,-653.80859375,-651.3671875
-783.69140625,-1000.0,-808.10546875,-1000.0
780.2734375,90.33203125,-708.984375,466.796875
-848.6328125,-812.5,-530.76171875,-791.015625
-127.44140625,41.50390625,-601.07421875,23.92578125
-1000.0,-1000.0,-791.50390625,-1000.0
86.9140625,-219.7265625,-752.44140625,-108.3984375
-753.90625,-807.12890625,-526.85546875,-770.99609375
194.82421875,251.953125,-491.69921875,212.890625
-1000.0,-1000.0,-714.35546875,-1000.0
-274.90234375,-473.6328125,-767.08984375,-274.90234375
-802.24609375,-917.96875,-613.76953125,-815.4296875
415.52734375,569.82421875,-475.5859375,530.2734375
-1000.0,-983.3984375,-631.34765625,-1000.0
-429.6875,-913.57421875,-836.9140625,-601.07421875
-934.08203125,568.84765625,-672.8515625,955.078125
885.25390625,-969.7265625,-408.203125,-979.98046875
-674.31640625,-370.60546875,-546.38671875,-420.8984375
-936.03515625,-1000.0,-835.9375,-1000.0
605.95703125,-32.2265625,-739.74609375,271.97265625
-809.08203125,-806.15234375,-336.9140625,-766.6015625
-7.32421875,116.69921875,-342.28515625,141.6015625
-1000.0,-1000.0,-828.61328125,-1000.0
-55.6640625,-272.94921875,-787.109375,-243.1640625
-764.16015625,-818.84765625,-472.16796875,-793.45703125
207.03125,305.6640625,-471.6796875,228.515625
-1000.0,-1000.0,-779.78515625,-1000.0
-277.34375,-576.66015625,-801.7578125,-289.0625
-806.640625,990.72265625,-597.16796875,-828.61328125
499.51171875,699.70703125,-503.41796875,605.46875
-1000.0,-836.9140625,-680.6640625,-982.91015625
-448.73046875,-1000.0,-804.6875,-660.15625
977.5390625,384.27734375,-638.18359375,854.00390625
-985.83984375,-885.25390625,-436.03515625,-936.03515625
-446.2890625,-213.37890625,-567.87109375,-307.12890625
-1000.0,-1000.0,-801.26953125,-1000.0
408.203125,-129.8828125,-615.234375,131.8359375
-774.4140625,-805.6640625,-444.82421875,-758.30078125
123.046875,186.03515625,-595.21484375,192.87109375
-1000.0,-1000.0,-776.3671875,-1000.0
-173.33984375,-330.56640625,-694.82421875,-271.484375
-775.87890625,-836.42578125,-577.1484375,-797.36328125
217.28515625,378.90625,-563.4765625,332.51953125
-1000.0,-1000.0,-736.81640625,-1000.0
-273.4375,-697.265625,-786.62109375,-392.578125
-826.66015625,863.76953125,-615.72265625,-892.08984375
609.375,828.125,-511.71875,758.30078125
-1000.0,-693.359375,-602.5390625,-840.33203125
-641.6015625,-1000.0,-758.30078125,-896.97265625
907.71484375,228.515625,-713.37890625,641.11328125
-892.578125,-838.37890625,-498.53515625,-827.1484375
-242.1875,-77.1484375,-565.91796875,-98.14453125
-1000.0,-1000.0,-820.80078125,-1000.0
209.9609375,-179.19921875,-767.08984375,0.48828125
-754.8828125,-805.6640625,-508.30078125,-762.20703125
187.98828125,216.796875,-479.00390625,203.61328125
-1000.0,-1000.0,-748.046875,-1000.0
-270.99609375,-394.04296875,-777.83203125,-274.4140625
-795.41015625,-865.234375,-543.45703125,-805.17578125
310.546875,452.63671875,-257.32421875,436.03515625
-1000.0,-1000.0,-546.38671875,-1000.0
-327.1484375,-815.4296875,-867.67578125,-507.32421875
-872.0703125,708.0078125,-579.58984375,-968.26171875
756.34765625,951.171875,-281.25,899.4140625
-861.81640625,-519.04296875,-556.15234375,-631.8359375
-795.8984375,-1000.0,-867.1875,-1000.0
767.578125,74.21875,-682.12890625,446.77734375
-843.75,-811.5234375,-483.88671875,-787.109375
-111.81640625,50.29296875,-573.2421875,40.0390625
-1000.0,-1000.0,-808.10546875,-1000.0
82.03125,-224.609375,-700.1953125,-115.234375
-752.9296875,-807.6171875,-437.98828125,-770.99609375
195.3125,259.27734375,-531.25,213.37890625
-1000.0,-1000.0,-777.34375,-1000.0
-274.90234375,-486.328125,-773.4375,-274.90234375
-803.22265625,-926.26953125,-609.86328125,-815.91796875
419.921875,575.68359375,-547.8515625,530.2734375
-1000.0,-974.12109375,-697.75390625,-1000.0
-438.4765625,-930.17578125,-801.7578125,-605.95703125
-942.87109375,546.38671875,-670.41015625,944.82421875
901.85546875,-947.75390625,-458.49609375,-961.42578125
-649.90234375,-351.07421875,-581.0546875,-384.27734375
-942.3828125,-1000.0,-750.48828125,-1000.0
596.19140625,-33.203125,-666.9921875,254.8828125
-803.22265625,-801.7578125,-557.12890625,-763.671875
13.671875,138.671875,-554.19921875,152.83203125
-1000.0,-1000.0,-735.3515625,-1000.0
-41.9921875,-272.4609375,-768.06640625,-243.1640625
-759.27734375,-816.89453125,-580.078125,-792.48046875
205.078125,309.08203125,-523.4375,228.515625
-1000.0,-1000.0,-745.60546875,-1000.0
-275.87890625,-574.70703125,-786.62109375,-291.9921875
-813.4765625,-984.86328125,-573.73046875,-838.8671875
518.06640625,678.22265625,-348.14453125,631.8359375
-1000.0,-865.72265625,-507.8125,-1000.0
-545.8984375,-1000.0,-859.375,-745.60546875
978.02734375,377.44140625,-693.359375,810.546875
-971.19140625,-875.0,-381.34765625,-872.0703125
-425.29296875,-192.3828125,-535.64453125,-210.44921875
-1000.0,-1000.0,-856.93359375,-1000.0
405.76171875,-119.62890625,-729.00390625,112.3046875
-772.94921875,-802.24609375,-474.12109375,-756.34765625
134.765625,187.98828125,-543.9453125,194.82421875
-1000.0,-1000.0,-794.921875,-1000.0
-182.6171875,-336.9140625,-774.90234375,-271.97265625
-776.85546875,-838.8671875,-380.37109375,-798.33984375
218.26171875,382.32421875,-308.59375,335.9375
-1000.0,-1000.0,-745.60546875,-1000.0
-273.4375,-710.9375,-790.52734375,-404.78515625
-828.125,844.23828125,-484.375,-900.87890625
618.1640625,844.7265625,-407.2265625,773.92578125
-1000.0,-673.33984375,-687.01171875,-826.66015625
-644.04296875,-1000.0,-817.87109375,-892.08984375
905.2734375,217.28515625,-662.59765625,648.92578125
-890.13671875,-831.0546875,-492.67578125,-827.63671875
-223.6328125,-55.6640625,-602.5390625,-91.30859375
-1000.0,-1000.0,-768.06640625,-1000.0
186.03515625,-186.5234375,-678.7109375,-6.8359375
-753.90625,-805.6640625,-548.33984375,-762.6953125
188.96484375,221.19140625,-566.89453125,204.1015625
-1000.0,-1000.0,-769.04296875,-1000.0
-270.99609375,-406.25,-791.015625,-274.4140625
-795.8984375,-872.0703125,-602.5390625,-805.6640625
315.4296875,465.8203125,-486.81640625,436.03515625
-1000.0,-1000.0,-669.921875,-1000.0
-343.75,-831.0546875,-827.63671875,-517.578125
-859.86328125,713.37890625,-670.41015625,-960.44921875
711.9140625,910.64453125,-486.328125,869.140625
-937.01171875,-586.42578125,-602.05078125,-683.59375
-787.59765625,-1000.0,-810.546875,-1000.0
765.625,78.125,-691.89453125,448.73046875
-844.7265625,-814.453125,-463.8671875,-787.109375
-104.00390625,47.8515625,-422.36328125,52.24609375
-1000.0,-1000.0,-722.65625,-1000.0
72.75390625,-223.14453125,-814.94140625,-121.58203125
-753.90625,-807.6171875,-480.95703125,-770.99609375
195.80078125,260.7421875,-428.22265625,213.8671875
-1000.0,-1000.0,-775.390625,-1000.0
-274.90234375,-493.1640625,-810.05859375,-274.4140625
-803.22265625,-931.15234375,-497.0703125,-815.91796875
422.8515625,577.63671875,-319.82421875,530.2734375
-1000.0,-969.7265625,-648.4375,-1000.0
-445.80078125,-939.453125,-863.28125,-615.72265625
-947.75390625,530.76171875,-560.05859375,938.4765625
909.66796875,-942.3828125,-338.37890625,-958.49609375
-638.671875,-340.33203125,-644.04296875,-383.7890625
-948.73046875,-1000.0,-840.33203125,-1000.0
589.35546875,-44.921875,-679.6875,255.37109375
-803.7109375,-803.7109375,-494.140625,-763.18359375
23.4375,145.5078125,-582.51953125,165.0390625
-1000.0,-1000.0,-812.98828125,-1000.0
-15.13671875,-227.05078125,-746.58203125,-192.87109375
-911.1328125,-966.30859375,-515.13671875,-939.94140625
-69.82421875,31.25,-473.6328125,-48.828125
-1000.0,-1000.0,-694.82421875,-1000.0
-270.01953125,-583.49609375,-776.85546875,-291.9921875
-824.21875,966.796875,-624.51171875,-848.6328125
521.484375,717.7734375,-524.90234375,626.46484375
-1000.0,-828.61328125,-635.7421875,-1000.0
-548.828125,-1000.0,-745.60546875,-748.046875
976.07421875,378.41796875,-673.828125,804.19921875
-968.75,-873.046875,-518.06640625,-869.62890625
-416.9921875,-187.01171875,-571.2890625,-204.58984375
-1000.0,-1000.0,-739.74609375,-1000.0
394.53125,-127.44140625,-699.21875,111.81640625
-772.4609375,-803.7109375,-508.7890625,-756.34765625
134.27734375,187.98828125,-484.375,194.3359375
-1000.0,-1000.0,-728.515625,-1000.0
-191.89453125,-339.35546875,-808.59375,-271.484375
-779.296875,-840.33203125,-541.9921875,-798.828125
219.7265625,379.8828125,-466.796875,336.42578125
-1000.0,-1000.0,-740.72265625,-1000.0
-274.90234375,-707.51953125,-852.05078125,-417.96875
-821.2890625,846.19140625,-629.39453125,-908.69140625
601.07421875,849.609375,-380.37109375,784.1796875
-976.07421875,-664.0625,-584.47265625,-812.5
-562.01171875,-1000.0,-814.453125,-906.73828125
890.625,212.890625,-680.17578125,629.8828125
-888.18359375,-834.9609375,-283.203125,-822.75390625
-221.19140625,-62.01171875,-397.94921875,-83.0078125
-1000.0,-1000.0,-880.37109375,-1000.0
190.91796875,-184.08203125,-728.515625,-8.7890625
-753.90625,-805.17578125,-408.69140625,-762.20703125
188.4765625,222.16796875,-501.953125,204.58984375
-1000.0,-1000.0,-807.12890625,-1000.0
-271.484375,-404.78515625,-736.328125,-274.4140625
-795.8984375,-873.53515625,-525.87890625,-805.17578125
321.2890625,482.421875,-535.64453125,435.546875
-1000.0,-1000.0,-716.30859375,-1000.0
-336.42578125,-843.75,-748.046875,-497.0703125
-878.90625,677.24609375,-574.21875,-971.19140625
773.92578125,966.796875,-542.96875,920.8984375
-838.37890625,-498.53515625,-672.36328125,-594.23828125
-809.08203125,-1000.0,-805.6640625,-1000.0
755.37109375,60.546875,-698.73046875,440.4296875
-840.8203125,-811.03515625,-520.5078125,-784.66796875
-99.12109375,57.12890625,-594.23828125,47.8515625
-1000.0,-1000.0,-803.22265625,-1000.0
56.15234375,-229.00390625,-765.13671875,-123.53515625
-754.8828125,-808.59375,-500.48828125,-771.484375
197.265625,260.7421875,-475.5859375,214.35546875
-1000.0,-1000.0,-692.3828125,-1000.0
-275.390625,-488.76953125,-738.76953125,-274.4140625
-803.7109375,-930.17578125,-631.34765625,-816.40625
424.8046875,587.40234375,-480.46875,530.76171875
-1000.0,-962.40234375,-615.234375,-1000.0
-445.3125,-938.96484375,-827.1484375,-621.58203125
-949.21875,537.59765625,-706.0546875,932.12890625
914.55078125,-948.73046875,-438.96484375,-951.66015625
-629.8828125,-347.65625,-549.8046875,-371.09375
-953.125,-1000.0,-854.4921875,-1000.0
584.47265625,-45.41015625,-731.93359375,244.62890625
-801.7578125,-803.7109375,-379.39453125,-761.71875
20.5078125,138.671875,-435.05859375,164.55078125
-1000.0,-1000.0,-792.48046875,-1000.0
-67.87109375,-280.76171875,-770.99609375,-248.53515625
-763.671875,-819.3359375,-411.1328125,-793.45703125
208.0078125,316.40625,-301.26953125,229.4921875
-1000.0,-1000.0,-746.58203125,-1000.0
-275.87890625,-590.8203125,-828.125,-307.12890625
-814.453125,976.07421875,-541.9921875,-844.7265625
528.80859375,717.28515625,-443.84765625,637.20703125
-1000.0,-822.75390625,-697.265625,-998.53515625
-552.734375,-1000.0,-823.2421875,-746.58203125
974.12109375,357.91015625,-638.671875,806.15234375
-966.30859375,-878.41796875,-443.84765625,-867.1875
-407.71484375,-195.80078125,-559.08203125,-195.3125
-1000.0,-1000.0,-802.734375,-1000.0
375.9765625,-139.6484375,-637.6953125,113.76953125
-770.01953125,-806.15234375,-436.5234375,-755.37109375
142.578125,190.91796875,-558.10546875,194.3359375
-1000.0,-1000.0,-752.9296875,-1000.0
-190.91796875,-338.8671875,-715.33203125,-271.484375
-778.3203125,-840.33203125,-594.7265625,-798.33984375
219.23828125,393.5546875,-563.96484375,335.9375
-1000.0,-1000.0,-740.234375,-1000.0
-272.4609375,-710.44921875,-794.43359375,-410.64453125
-831.0546875,845.703125,-622.55859375,-909.1796875
629.8828125,852.05078125,-526.3671875,792.96875
-1000.0,-660.15625,-626.953125,-795.41015625
-655.76171875,-1000.0,-776.85546875,-917.48046875
897.94921875,203.61328125,-714.84375,616.2109375
-880.859375,-825.1953125,-504.39453125,-812.98828125
-235.83984375,-76.171875,-589.35546875,-94.7265625
-1000.0,-1000.0,-833.984375,-1000.0
259.27734375,-99.12109375,-737.79296875,77.63671875
-764.16015625,-817.3828125,-463.37890625,-772.94921875
189.453125,218.26171875,-420.41015625,204.58984375
-1000.0,-1000.0,-717.7734375,-1000.0
-271.484375,-408.69140625,-779.296875,-274.4140625
-795.8984375,-874.0234375,-554.19921875,-806.640625
320.80078125,464.84375,-284.66796875,448.2421875
-1000.0,-1000.0,-540.0390625,-1000.0
-339.84375,-829.1015625,-886.71875,-514.6484375
-881.34765625,687.5,-610.3515625,-979.98046875
776.85546875,967.28515625,-344.23828125,927.734375
-834.9609375,-495.60546875,-613.76953125,-588.37890625
-810.05859375,-1000.0,-860.83984375,-1000.0
754.39453125,61.5234375,-709.47265625,437.5
-840.33203125,-809.5703125,-494.62890625,-783.69140625
-96.6796875,63.4765625,-538.57421875,49.8046875
-1000.0,-1000.0,-802.24609375,-1000.0
56.15234375,-229.98046875,-706.0546875,-122.55859375
-754.8828125,-808.10546875,-391.6015625,-770.99609375
197.265625,267.08984375,-499.51171875,213.8671875
-1000.0,-1000.0,-776.85546875,-1000.0
-274.90234375,-495.60546875,-767.08984375,-274.4140625
-803.7109375,-934.08203125,-599.12109375,-816.40625
427.24609375,593.26171875,-522.94921875,534.66796875
-1000.0,-953.61328125,-701.171875,-1000.0
-452.63671875,-952.63671875,-818.359375,-621.58203125
-954.1015625,517.578125,-675.29296875,926.7578125
922.8515625,-937.98828125,-444.3359375,-934.08203125
-645.01953125,-362.79296875,-564.94140625,-369.140625
-904.78515625,-1000.0,-763.18359375,-1000.0
661.62109375,33.69140625,-646.484375,330.078125
-810.546875,-814.94140625,-504.39453125,-771.97265625
23.4375,143.06640625,-530.76171875,166.50390625
-1000.0,-1000.0,-737.79296875,-1000.0
-67.87109375,-278.80859375,-767.578125,-253.41796875
-763.18359375,-818.359375,-566.40625,-794.43359375
207.51953125,316.40625,-500.0,229.98046875
-1000.0,-1000.0,-717.28515625,-1000.0
-275.87890625,-599.12109375,-825.1953125,-305.6640625
-814.94140625,973.6328125,-594.7265625,-851.07421875
529.296875,702.63671875,-318.84765625,664.55078125
-1000.0,-841.30859375,-534.66796875,-966.796875
-553.22265625,-1000.0,-874.51171875,-759.27734375
971.19140625,362.3046875,-685.546875,799.8046875
-958.984375,-870.1171875,-443.84765625,-866.2109375
-398.4375,-179.19921875,-574.70703125,-191.89453125
-1000.0,-1000.0,-816.40625,-1000.0
385.7421875,-128.41796875,-734.86328125,100.5859375
-770.01953125,-802.24609375,-415.0390625,-756.34765625
149.90234375,196.2890625,-479.4921875,195.3125
-1000.0,-1000.0,-800.29296875,-1000.0
-198.2421875,-343.75,-776.3671875,-271.484375
-779.78515625,-841.30859375,-411.62109375,-798.828125
219.7265625,387.6953125,-321.77734375,336.42578125
-1000.0,-1000.0,-737.79296875,-1000.0
-271.97265625,-729.00390625,-805.6640625,-416.50390625
-832.03125,824.70703125,-563.96484375,-912.109375
634.765625,856.93359375,-501.953125,796.38671875
-1000.0,-659.66796875,-684.5703125,-794.43359375
-657.2265625,-1000.0,-805.17578125,-913.57421875
897.94921875,203.61328125,-665.52734375,622.55859375
-885.25390625,-828.125,-455.56640625,-819.3359375
-208.984375,-42.96875,-557.12890625,-75.1953125
-1000.0,-1000.0,-761.23046875,-1000.0
172.36328125,-191.40625,-656.73828125,-0.48828125
-752.44140625,-805.6640625,-529.78515625,-760.25390625
188.96484375,224.12109375,-533.203125,203.125
-1000.0,-1000.0,-747.55859375,-1000.0
-271.484375,-409.66796875,-795.41015625,-274.90234375
-795.8984375,-875.0,-600.5859375,-806.15234375
322.75390625,479.98046875,-500.48828125,444.82421875
-1000.0,-1000.0,-701.66015625,-1000.0
-339.84375,-837.890625,-837.890625,-514.16015625
-884.765625,682.12890625,-673.828125,-985.83984375
790.0390625,966.796875,-477.5390625,943.359375
-818.84765625,-496.09375,-587.890625,-563.96484375
-811.03515625,-1000.0,-804.6875,-1000.0
755.37109375,58.10546875,-691.89453125,431.640625
-839.35546875,-812.01171875,-444.3359375,-782.2265625
-91.796875,54.19921875,-404.78515625,61.5234375
-1000.0,-1000.0,-719.7265625,-1000.0
52.734375,-228.02734375,-797.36328125,-135.7421875
-754.8828125,-808.59375,-475.09765625,-772.94921875
197.75390625,259.27734375,-349.12109375,215.33203125
-1000.0,-1000.0,-723.14453125,-1000.0
-275.390625,-497.0703125,-831.54296875,-273.92578125
-803.7109375,-936.5234375,-545.41015625,-817.87109375
431.15234375,589.84375,-384.765625,543.9453125
-1000.0,-958.984375,-643.06640625,-1000.0
-450.1953125,-944.82421875,-875.48828125,-624.51171875
-953.125,524.90234375,-567.3828125,929.19921875
922.36328125,-939.94140625,-257.32421875,-942.3828125
-616.2109375,-333.984375,-579.1015625,-352.5390625
-959.47265625,-1000.0,-845.21484375,-1000.0
576.66015625,-52.24609375,-671.875,239.74609375
-800.78125,-803.7109375,-505.37109375,-761.23046875
27.83203125,144.53125,-585.44921875,168.9453125
-1000.0,-1000.0,-799.31640625,-1000.0
-82.03125,-286.1328125,-752.44140625,-255.37109375
-766.11328125,-821.2890625,-490.72265625,-793.9453125
209.47265625,317.87109375,-445.3125,229.98046875
-1000.0,-1000.0,-726.07421875,-1000.0
-275.390625,-620.1171875,-734.375,-297.8515625
-814.94140625,951.66015625,-563.4765625,-844.7265625
530.2734375,726.5625,-554.6875,648.4375
-1000.0,-821.2890625,-667.96875,-979.98046875
-555.6640625,-1000.0,-746.58203125,-761.23046875
969.23828125,356.93359375,-660.64453125,792.96875
-956.54296875,-870.60546875,-545.8984375,-863.76953125
-392.08984375,-180.17578125,-610.3515625,-189.94140625
-1000.0,-1000.0,-776.85546875,-1000.0
376.953125,-132.8125,-726.5625,108.88671875
-769.53125,-804.19921875,-487.79296875,-755.37109375
148.4375,191.89453125,-445.3125,194.82421875
-1000.0,-1000.0,-714.35546875,-1000.0
-198.73046875,-342.28515625,-812.5,-271.484375
-779.78515625,-841.796875,-557.6171875,-798.828125
220.21484375,393.06640625,-460.9375,336.42578125
-1000.0,-1000.0,-725.5859375,-1000.0
-271.484375,-717.28515625,-842.28515625,-416.015625
-833.49609375,836.42578125,-638.671875,-915.0390625
641.11328125,858.88671875,-444.3359375,806.15234375
-1000.0,-653.80859375,-611.328125,-781.25
-655.2734375,-1000.0,-805.6640625,-916.50390625
899.4140625,207.03125,-685.546875,621.09375
-884.27734375,-830.078125,-286.62109375,-819.3359375
-201.171875,-44.43359375,-364.74609375,-68.84765625
-1000.0,-1000.0,-850.5859375,-1000.0
166.9921875,-187.98828125,-732.421875,-17.578125
-752.44140625,-805.6640625,-326.171875,-762.20703125
189.453125,223.14453125,-412.109375,205.078125
-1000.0,-1000.0,-822.265625,-1000.0
-271.484375,-416.9921875,-766.6015625,-274.4140625
-796.38671875,-879.39453125,-555.6640625,-806.15234375
324.70703125,483.88671875,-521.97265625,446.77734375
-1000.0,-1000.0,-711.42578125,-1000.0
-345.21484375,-856.4453125,-754.8828125,-506.34765625
-887.6953125,657.2265625,-562.5,-979.4921875
794.43359375,979.98046875,-512.6953125,937.01171875
-814.453125,-480.46875,-656.73828125,-573.73046875
-812.01171875,-1000.0,-801.26953125,-1000.0
754.39453125,53.22265625,-687.98828125,442.87109375
-838.8671875,-807.6171875,-515.625,-783.69140625
-85.9375,72.265625,-601.5625,56.640625
-1000.0,-1000.0,-801.26953125,-1000.0
48.33984375,-231.4453125,-764.6484375,-128.41796875
-754.8828125,-808.10546875,-532.2265625,-771.97265625
197.75390625,263.18359375,-468.26171875,214.84375
-1000.0,-1000.0,-709.9609375,-1000.0
-275.390625,-499.51171875,-783.203125,-274.4140625
-804.19921875,-937.98828125,-621.58203125,-818.359375
434.08203125,596.19140625,-496.58203125,544.921875
-1000.0,-951.66015625,-626.46484375,-1000.0
-458.0078125,-953.61328125,-815.4296875,-632.8125
-956.54296875,519.04296875,-707.03125,917.96875
925.29296875,-947.265625,-434.5703125,-927.24609375
-611.328125,-347.16796875,-506.34765625,-325.1953125
-966.796875,-1000.0,-835.44921875,-1000.0
565.91796875,-54.6875,-753.41796875,229.4921875
-798.828125,-805.6640625,-373.046875,-759.765625
30.76171875,138.671875,-396.484375,175.29296875
-1000.0,-1000.0,-820.80078125,-1000.0
-85.44921875,-285.15625,-783.203125,-264.16015625
-766.11328125,-821.2890625,-479.4921875,-796.875
209.47265625,326.66015625,-459.47265625,231.93359375
-1000.0,-1000.0,-772.94921875,-1000.0
-275.390625,-596.19140625,-801.7578125,-313.96484375
-816.89453125,968.75,-564.94140625,-853.02734375
543.45703125,735.83984375,-450.1953125,661.62109375
-1000.0,-802.734375,-659.66796875,-970.703125
-561.03515625,-1000.0,-836.9140625,-762.6953125
968.75,352.5390625,-538.57421875,791.9921875
-956.0546875,-870.60546875,-245.1171875,-861.328125
-380.859375,-177.734375,-542.96875,-184.5703125
-1000.0,-1000.0,-833.0078125,-1000.0
342.7734375,-144.53125,-642.578125,113.28125
-766.6015625,-805.6640625,-484.375,-754.8828125
151.3671875,196.77734375,-606.93359375,193.84765625
-1000.0,-1000.0,-770.01953125,-1000.0
-205.56640625,-346.19140625,-738.28125,-275.87890625
-773.92578125,-839.35546875,-573.73046875,-783.69140625
202.1484375,388.18359375,-527.34375,301.7578125
-1000.0,-1000.0,-723.6328125,-1000.0
-182.6171875,-683.59375,-776.3671875,-230.95703125
-846.6796875,821.77734375,-570.3125,-934.08203125
650.390625,863.28125,-406.25,812.5
-996.58203125,-648.4375,-552.734375,-761.23046875
-657.71484375,-1000.0,-756.8359375,-925.29296875
898.92578125,201.171875,-707.51953125,610.83984375
-883.30078125,-826.66015625,-497.0703125,-816.40625
-198.73046875,-37.59765625,-567.3828125,-63.4765625
-1000.0,-1000.0,-833.49609375,-1000.0
163.57421875,-188.4765625,-765.13671875,-20.99609375
-752.44140625,-805.17578125,-517.578125,-762.20703125
189.94140625,223.6328125,-502.44140625,205.078125
-1000.0,-1000.0,-752.9296875,-1000.0
-271.484375,-416.50390625,-782.71484375,-274.90234375
-796.38671875,-878.41796875,-555.17578125,-808.59375
326.171875,475.5859375,-257.8125,466.796875
-1000.0,-1000.0,-536.1328125,-1000.0
-350.09765625,-841.796875,-886.71875,-530.76171875
-889.16015625,673.33984375,-630.37109375,-991.69921875
795.41015625,971.6796875,-278.3203125,947.265625
-809.5703125,-486.81640625,-526.3671875,-558.10546875
-826.171875,-1000.0,-879.8828125,-1000.0
737.79296875,48.828125,-687.5,420.41015625
-835.9375,-809.08203125,-461.9140625,-780.76171875
-82.03125,71.2890625,-533.203125,60.546875
-1000.0,-1000.0,-795.8984375,-1000.0
35.15625,-236.328125,-699.70703125,-135.7421875
-756.8359375,-809.5703125,-432.6171875,-773.4375
199.21875,269.04296875,-542.96875,215.33203125
-1000.0,-1000.0,-783.69140625,-1000.0
-274.90234375,-506.8359375,-774.4140625,-273.92578125
-804.6875,-943.84765625,-600.5859375,-818.84765625
437.98828125,605.46875,-534.1796875,549.8046875
-1000.0,-942.87109375,-704.1015625,-1000.0
-461.42578125,-960.44921875,-805.6640625,-636.23046875
-959.9609375,507.8125,-654.78515625,918.45703125
931.640625,-936.03515625,-419.921875,-930.6640625
-593.75,-327.1484375,-556.640625,-330.56640625
-987.3046875,-1000.0,-757.32421875,-1000.0
536.62109375,-62.5,-649.4140625,223.14453125
-793.9453125,-802.734375,-551.26953125,-759.27734375
37.109375,153.3203125,-559.5703125,176.26953125
-1000.0,-1000.0,-753.41796875,-1000.0
-85.44921875,-288.0859375,-793.45703125,-264.16015625
-765.625,-821.2890625,-583.0078125,-796.875
209.47265625,322.75390625,-482.91015625,231.93359375
-1000.0,-1000.0,-696.2890625,-1000.0
-275.390625,-616.2109375,-812.01171875,-312.98828125
-816.40625,957.03125,-604.98046875,-860.83984375
542.96875,717.28515625,-347.16796875,693.359375
-1000.0,-826.171875,-504.39453125,-933.59375
-562.01171875,-1000.0,-847.65625,-779.296875
964.84375,345.703125,-712.890625,782.71484375
-948.73046875,-866.2109375,-386.71875,-860.3515625
-368.65234375,-167.96875,-510.25390625,-176.7578125
-1000.0,-1000.0,-853.515625,-1000.0
342.7734375,-136.23046875,-732.421875,83.49609375
-766.11328125,-803.22265625,-482.421875,-757.32421875
158.203125,197.75390625,-547.36328125,196.77734375
-1000.0,-1000.0,-790.52734375,-1000.0
-209.47265625,-350.09765625,-771.484375,-271.97265625
-781.73828125,-844.7265625,-440.4296875,-799.31640625
221.19140625,399.4140625,-349.609375,350.09765625
-1000.0,-1000.0,-723.6328125,-1000.0
-270.01953125,-738.28125,-830.078125,-424.8046875
-837.890625,812.5,-471.19140625,-920.8984375
657.71484375,873.046875,-327.63671875,820.80078125
-988.76953125,-633.30078125,-675.29296875,-765.13671875
-673.33984375,-1000.0,-811.5234375,-916.50390625
887.6953125,172.8515625,-647.94921875,622.55859375
-881.34765625,-824.21875,-516.6015625,-817.3828125
-195.3125,-26.85546875,-602.05078125,-60.05859375
-1000.0,-1000.0,-764.16015625,-1000.0
150.390625,-195.3125,-680.6640625,-18.5546875
-753.41796875,-805.6640625,-538.57421875,-761.71875
190.91796875,227.05078125,-550.78125,205.078125
-1000.0,-1000.0,-750.0,-1000.0
-271.97265625,-421.875,-778.80859375,-274.90234375
-796.38671875,-881.8359375,-605.95703125,-808.10546875
333.0078125,490.72265625,-526.3671875,460.9375
-1000.0,-1000.0,-698.73046875,-1000.0
-354.4921875,-852.5390625,-814.453125,-531.25
-894.04296875,661.62109375,-657.2265625,-997.55859375
810.546875,982.91015625,-478.515625,960.9375
-792.48046875,-473.6328125,-604.98046875,-539.55078125
-824.70703125,-1000.0,-805.17578125,-1000.0
742.1875,48.828125,-683.59375,420.41015625
-835.9375,-810.05859375,-487.79296875,-780.2734375
-75.1953125,67.87109375,-444.3359375,75.1953125
-1000.0,-1000.0,-723.14453125,-1000.0
23.92578125,-238.28125,-800.78125,-164.55078125
-757.8125,-810.546875,-483.3984375,-778.80859375
204.1015625,269.53125,-367.67578125,223.14453125
-1000.0,-1000.0,-726.5625,-1000.0
-238.28125,-479.4921875,-831.54296875,-236.81640625
-910.15625,975.09765625,-555.6640625,-925.78125
267.08984375,478.515625,-368.1640625,381.34765625
-1000.0,-922.8515625,-629.8828125,-1000.0
-459.9609375,-956.54296875,-870.1171875,-639.16015625
-968.75,503.41796875,-580.078125,910.15625
944.3359375,-926.26953125,-300.78125,-925.29296875
-575.1953125,-307.12890625,-582.51953125,-322.265625
-986.81640625,-1000.0,-829.1015625,-1000.0
540.52734375,-63.4765625,-695.3125,224.12109375
-794.921875,-804.19921875,-512.20703125,-757.32421875
39.55078125,147.94921875,-577.63671875,186.5234375
-1000.0,-1000.0,-802.734375,-1000.0
-97.16796875,-296.875,-735.3515625,-249.51171875
-767.578125,-825.1953125,-499.0234375,-791.015625
210.9375,328.125,-458.49609375,236.81640625
-1000.0,-1000.0,-694.82421875,-1000.0
-274.90234375,-625.48828125,-721.6796875,-310.05859375
-818.359375,940.91796875,-549.31640625,-854.98046875
559.08203125,756.8359375,-532.2265625,678.22265625
-1000.0,-788.57421875,-643.5546875,-946.77734375
-564.94140625,-1000.0,-745.1171875,-780.2734375
965.33203125,352.05078125,-688.96484375,775.87890625
-948.2421875,-867.1875,-510.25390625,-856.93359375
-356.4453125,-167.48046875,-596.6796875,-169.43359375
-1000.0,-1000.0,-813.96484375,-1000.0
312.5,-146.97265625,-710.44921875,88.8671875
-764.16015625,-806.15234375,-476.07421875,-756.34765625
159.1796875,193.84765625,-432.12890625,196.2890625
-1000.0,-1000.0,-683.10546875,-1000.0
-216.796875,-349.609375,-805.17578125,-272.94921875
-783.69140625,-845.703125,-600.5859375,-800.29296875
223.6328125,404.78515625,-445.80078125,368.1640625
-1000.0,-1000.0,-673.33984375,-1000.0
-269.04296875,-718.26171875,-845.21484375,-431.15234375
-841.796875,828.125,-634.765625,-927.24609375
673.33984375,886.23046875,-465.33203125,842.7734375
-971.19140625,-637.20703125,-635.25390625,-759.27734375
-679.19921875,-1000.0,-807.6171875,-877.44140625
888.671875,263.671875,-688.96484375,691.89453125
-881.34765625,-843.26171875,-289.0625,-826.171875
-194.3359375,-44.43359375,-371.58203125,-51.7578125
-1000.0,-1000.0,-857.91015625,-1000.0
138.671875,-197.75390625,-744.140625,-47.8515625
-754.39453125,-807.6171875,-342.7734375,-766.11328125
191.89453125,231.4453125,-425.78125,208.0078125
-1000.0,-1000.0,-839.35546875,-1000.0
-272.4609375,-423.33984375,-772.4609375,-274.4140625
-796.875,-884.27734375,-541.50390625,-808.59375
350.09765625,510.25390625,-517.578125,472.65625
-1000.0,-1000.0,-703.61328125,-1000.0
-359.375,-867.67578125,-759.27734375,-523.4375
-895.99609375,645.01953125,-573.2421875,-992.1875
817.3828125,993.1640625,-504.8828125,959.47265625
-772.4609375,-456.54296875,-648.4375,-529.296875
-857.421875,-1000.0,-812.5,-1000.0
704.1015625,34.66796875,-714.35546875,395.5078125
-829.58984375,-809.08203125,-523.92578125,-778.80859375
-72.75390625,77.1484375,-568.359375,74.21875
-1000.0,-1000.0,-777.83203125,-1000.0
16.6015625,-241.69921875,-763.671875,-168.9453125
-758.30078125,-810.546875,-525.390625,-780.2734375
201.171875,274.90234375,-474.609375,219.7265625
-1000.0,-1000.0,-678.22265625,-1000.0
-275.390625,-508.30078125,-742.1875,-273.4375
-806.15234375,-947.265625,-631.8359375,-821.2890625
457.51953125,621.58203125,-496.09375,567.87109375
-1000.0,-928.22265625,-649.90234375,-1000.0
-462.40234375,-964.84375,-834.47265625,-645.01953125
-962.890625,502.9296875,-697.265625,912.109375
946.77734375,-932.6171875,-455.078125,-919.43359375
-563.96484375,-316.89453125,-563.96484375,-309.08203125
-1000.0,-1000.0,-838.37890625,-1000.0
518.5546875,-69.3359375,-737.79296875,209.9609375
-791.50390625,-805.6640625,-340.8203125,-757.8125
42.96875,144.53125,-333.49609375,188.4765625
-1000.0,-1000.0,-790.0390625,-1000.0
-97.65625,-293.9453125,-811.03515625,-266.6015625
-767.578125,-824.70703125,-423.828125,-796.875
210.9375,336.42578125,-346.19140625,244.140625
-1000.0,-1000.0,-760.25390625,-1000.0
-274.90234375,-616.69921875,-812.01171875,-331.54296875
-818.84765625,949.70703125,-570.3125,-865.72265625
559.08203125,750.48828125,-458.49609375,695.80078125
-1000.0,-784.1796875,-667.96875,-934.08203125
-569.82421875,-1000.0,-821.2890625,-782.2265625
959.47265625,319.82421875,-633.7890625,774.4140625
-937.5,-862.79296875,-418.9453125,-853.02734375
-339.35546875,-157.71484375,-543.45703125,-160.64453125
-1000.0,-1000.0,-819.3359375,-1000.0
309.08203125,-153.3203125,-632.8125,98.14453125
-763.671875,-806.15234375,-411.62109375,-754.39453125
167.48046875,203.125,-580.078125,195.3125
-1000.0,-1000.0,-771.484375,-1000.0
-229.00390625,-360.83984375,-713.8671875,-272.4609375
-785.64453125,-849.609375,-580.56640625,-799.8046875
229.98046875,411.62109375,-550.29296875,363.28125
-1000.0,-1000.0,-727.5390625,-1000.0
-269.53125,-743.1640625,-796.38671875,-424.8046875
-841.796875,807.12890625,-627.9296875,-926.26953125
676.26953125,882.8125,-525.87890625,842.7734375
-963.37890625,-620.60546875,-623.046875,-723.6328125
-697.265625,-1000.0,-758.30078125,-952.63671875
867.67578125,170.41015625,-717.7734375,579.58984375
-873.53515625,-822.75390625,-470.703125,-812.01171875
-180.6640625,-18.5546875,-540.52734375,-47.36328125
-1000.0,-1000.0,-826.171875,-1000.0
139.16015625,-196.2890625,-774.90234375,-59.08203125
-753.41796875,-805.6640625,-513.18359375,-767.578125
191.40625,230.46875,-495.60546875,209.47265625
-1000.0,-1000.0,-772.94921875,-1000.0
-272.4609375,-433.59375,-768.06640625,-274.90234375
-797.36328125,-887.20703125,-568.84765625,-811.03515625
347.65625,488.76953125,-282.71484375,492.67578125
-1000.0,-1000.0,-504.8828125,-1000.0
-367.1875,-863.76953125,-878.41796875,-548.33984375
-901.85546875,639.16015625,-627.9296875,996.09375
827.63671875,999.0234375,-347.65625,970.703125
-761.23046875,-448.2421875,-575.1953125,-516.6015625
-860.3515625,-1000.0,-842.7734375,-1000.0
700.68359375,32.71484375,-640.625,385.25390625
-827.1484375,-805.17578125,-389.6484375,-776.85546875
-64.453125,89.84375,-507.8125,76.171875
-1000.0,-1000.0,-799.8046875,-1000.0
17.08984375,-244.140625,-690.91796875,-164.55078125
-757.8125,-811.03515625,-418.9453125,-778.80859375
200.68359375,278.3203125,-541.50390625,218.75
-1000.0,-1000.0,-786.62109375,-1000.0
-275.390625,-527.34375,-773.4375,-273.4375
-806.640625,-959.9609375,-597.16796875,-822.75390625
465.8203125,629.39453125,-534.66796875,577.1484375
-1000.0,-924.8046875,-700.68359375,-1000.0
-446.2890625,-969.7265625,-822.75390625,-645.01953125
983.3984375,465.33203125,-660.15625,903.3203125
820.3125,-957.03125,-399.90234375,-930.17578125
-548.33984375,-295.8984375,-564.94140625,-292.96875
-1000.0,-1000.0,-753.90625,-1000.0
492.67578125,-83.984375,-636.71875,193.84765625
-788.57421875,-804.19921875,-548.828125,-756.8359375
50.29296875,159.1796875,-548.33984375,189.453125
-1000.0,-1000.0,-724.12109375,-1000.0
-107.91015625,-298.33984375,-771.484375,-267.578125
-769.04296875,-824.70703125,-586.9140625,-796.875
211.9140625,336.9140625,-500.9765625,260.25390625
-1000.0,-1000.0,-708.49609375,-1000.0
-274.90234375,-624.0234375,-814.94140625,-338.8671875
-820.3125,944.3359375,-606.4453125,-871.58203125
567.3828125,749.0234375,-346.19140625,717.28515625
-1000.0,-788.0859375,-515.625,-907.2265625
-579.1015625,-1000.0,-843.26171875,-800.29296875
953.61328125,321.2890625,-691.89453125,759.765625
-933.10546875,-860.3515625,-381.34765625,-851.07421875
-327.63671875,-149.4140625,-503.90625,-152.34375
-1000.0,-1000.0,-861.328125,-1000.0
288.0859375,-151.3671875,-739.74609375,64.94140625
-754.8828125,-805.17578125,-473.14453125,-750.48828125
155.2734375,203.125,-544.43359375,179.6875
-1000.0,-1000.0,-787.109375,-1000.0
-149.4140625,-361.328125,-770.5078125,-184.5703125
-797.8515625,-850.5859375,-387.20703125,-812.01171875
248.53515625,422.36328125,-241.2109375,373.53515625
-1000.0,-1000.0,-710.9375,-1000.0
-274.90234375,-745.1171875,-817.3828125,-451.66015625
-833.984375,804.6875,-568.359375,-918.9453125
658.203125,889.6484375,-492.67578125,804.6875
-988.28125,-599.12109375,-671.875,-803.22265625
-722.16796875,-1000.0,-768.06640625,-919.921875
838.37890625,124.51171875,-625.48828125,609.86328125
-870.1171875,-825.1953125,-518.5546875,-815.91796875
-180.17578125,-17.08984375,-601.5625,-35.15625
-1000.0,-1000.0,-759.27734375,-1000.0
123.046875,-203.125,-689.94140625,-60.546875
-754.39453125,-806.15234375,-539.55078125,-767.08984375
192.87109375,238.76953125,-562.5,208.984375
-1000.0,-1000.0,-751.46484375,-1000.0
-273.4375,-418.45703125,-770.5078125,-274.90234375
-798.33984375,-883.30078125,-610.3515625,-811.03515625
375.9765625,525.87890625,-522.94921875,495.60546875
-1000.0,-1000.0,-698.73046875,-1000.0
-370.60546875,-877.9296875,-820.3125,-542.96875
-897.94921875,639.6484375,-633.7890625,993.1640625
822.75390625,983.88671875,-416.9921875,986.328125
-752.9296875,-461.9140625,-513.18359375,-485.3515625
-894.53125,-1000.0,-748.046875,-1000.0
656.25,-1.46484375,-710.9375,368.1640625
-821.2890625,-813.4765625,-502.9296875,-776.3671875
-66.40625,76.171875,-486.81640625,79.1015625
-1000.0,-1000.0,-742.1875,-1000.0
12.6953125,-241.2109375,-778.3203125,-192.3828125
-758.30078125,-811.03515625,-495.60546875,-785.64453125
201.171875,289.0625,-461.42578125,222.65625
-1000.0,-1000.0,-783.69140625,-1000.0
-275.87890625,-510.25390625,-834.47265625,-272.94921875
-809.08203125,-938.96484375,-562.98828125,-823.73046875
475.5859375,610.83984375,-381.34765625,586.42578125
-1000.0,-939.94140625,-631.34765625,-1000.0
-500.0,-995.1171875,-825.68359375,-650.390625
-977.5390625,450.68359375,-581.0546875,908.203125
950.1953125,-927.24609375,-272.4609375,-910.64453125
-554.6875,-305.17578125,-551.26953125,-278.80859375
-1000.0,-1000.0,-851.07421875,-1000.0
465.33203125,-94.7265625,-690.4296875,166.015625
-784.66796875,-805.6640625,-509.27734375,-756.8359375
57.12890625,164.0625,-582.51953125,190.91796875
-1000.0,-1000.0,-805.17578125,-1000.0
-105.95703125,-296.38671875,-759.765625,-268.06640625
-768.06640625,-824.70703125,-511.71875,-796.38671875
211.42578125,352.5390625,-417.96875,271.484375
-1000.0,-1000.0,-682.12890625,-1000.0
-274.90234375,-642.08984375,-769.53125,-339.84375
-821.77734375,932.12890625,-590.33203125,-869.62890625
572.75390625,759.765625,-483.88671875,713.8671875
-1000.0,-769.04296875,-630.37109375,-905.2734375
-610.3515625,-1000.0,-755.37109375,-813.4765625
932.6171875,276.85546875,-666.9921875,740.234375
-918.45703125,-853.515625,-539.55078125,-840.8203125
-340.8203125,-169.921875,-581.54296875,-166.50390625
-1000.0,-1000.0,-767.08984375,-1000.0
361.328125,-67.3828125,-714.84375,146.484375
-770.5078125,-816.40625,-487.79296875,-769.04296875
184.08203125,207.51953125,-447.75390625,199.21875
-1000.0,-1000.0,-705.078125,-1000.0
-234.86328125,-355.95703125,-816.40625,-272.94921875
-784.66796875,-847.65625,-585.9375,-801.26953125
259.765625,427.24609375,-479.00390625,382.8125
-1000.0,-1000.0,-701.66015625,-1000.0
-273.92578125,-768.5546875,-820.80078125,-448.2421875
-844.23828125,781.25,-635.7421875,-940.91796875
693.359375,892.08984375,-399.90234375,871.09375
-936.03515625,-604.98046875,-580.56640625,-696.77734375
-729.00390625,-1000.0,-821.2890625,-946.2890625
836.9140625,134.765625,-693.359375,592.7734375
-866.69921875,-826.171875,-300.78125,-811.5234375
-172.36328125,-14.16015625,-379.39453125,-34.1796875
-1000.0,-1000.0,-861.81640625,-1000.0
124.0234375,-200.1953125,-738.28125,-73.2421875
-753.90625,-806.15234375,-409.66796875,-769.53125
192.87109375,240.234375,-491.69921875,210.9375
-1000.0,-1000.0,-814.94140625,-1000.0
-273.4375,-440.4296875,-770.99609375,-274.90234375
-798.828125,-893.06640625,-552.24609375,-811.5234375
375.9765625,521.484375,-486.328125,505.859375
-1000.0,-1000.0,-683.59375,-1000.0
-384.765625,-896.484375,-772.94921875,-535.15625
-909.1796875,600.5859375,-535.15625,999.51171875
842.7734375,-986.81640625,-462.890625,981.4453125
-734.86328125,-429.6875,-647.4609375,-476.5625
-888.18359375,-1000.0,-812.5,-1000.0
666.015625,15.625,-710.9375,328.125
-820.3125,-803.22265625,-528.80859375,-773.4375
-52.24609375,104.98046875,-588.37890625,80.078125
-1000.0,-1000.0,-794.43359375,-1000.0
8.30078125,-246.58203125,-769.04296875,-196.77734375
-757.8125,-810.546875,-544.921875,-786.62109375
201.171875,282.2265625,-499.51171875,223.6328125
-1000.0,-1000.0,-681.640625,-1000.0
-275.87890625,-541.015625,-727.05078125,-272.4609375
-809.08203125,-970.703125,-609.86328125,-825.1953125
477.5390625,632.32421875,-500.48828125,595.21484375
-1000.0,-914.55078125,-618.65234375,-1000.0
-501.46484375,-992.67578125,-810.05859375,-678.22265625
-985.3515625,452.63671875,-694.3359375,881.8359375
972.16796875,-916.50390625,-436.03515625,-899.4140625
-528.80859375,-288.57421875,-553.22265625,-266.6015625
-1000.0,-1000.0,-835.9375,-1000.0
483.88671875,-82.51953125,-748.53515625,154.78515625
-785.15625,-803.7109375,-385.7421875,-756.8359375
71.2890625,164.0625,-381.34765625,191.89453125
-1000.0,-1000.0,-816.40625,-1000.0
-120.60546875,-303.7109375,-788.0859375,-269.04296875
-769.53125,-826.66015625,-491.69921875,-796.38671875
212.890625,351.07421875,-446.2890625,286.1328125
-1000.0,-1000.0,-731.4453125,-1000.0
-274.4140625,-642.08984375,-823.73046875,-349.609375
-822.75390625,925.29296875,-539.0625,-874.0234375
582.03125,773.92578125,-405.2734375,725.5859375
-1000.0,-758.30078125,-684.5703125,-888.671875
-603.515625,-1000.0,-828.61328125,-831.0546875
937.5,291.50390625,-650.87890625,724.12109375
-919.921875,-853.02734375,-413.57421875,-845.21484375
-300.29296875,-128.90625,-532.2265625,-147.94921875
-1000.0,-1000.0,-842.28515625,-1000.0
250.0,-169.921875,-639.6484375,55.17578125
-758.7890625,-807.6171875,-427.734375,-758.30078125
185.546875,208.984375,-594.23828125,199.21875
-1000.0,-1000.0,-765.13671875,-1000.0
-248.046875,-371.58203125,-730.46875,-273.4375
-788.0859375,-854.4921875,-536.1328125,-801.7578125
266.11328125,430.6640625,-506.8359375,393.06640625
-1000.0,-1000.0,-705.078125,-1000.0
-277.83203125,-765.625,-748.53515625,-455.078125
-850.09765625,775.390625,-630.37109375,-942.87109375
713.8671875,915.52734375,-508.7890625,873.046875
-916.50390625,-579.1015625,-598.14453125,-682.6171875
-728.02734375,-1000.0,-758.7890625,-977.5390625
840.8203125,148.4375,-721.6796875,547.8515625
-865.234375,-815.91796875,-449.70703125,-805.6640625
-163.57421875,10.7421875,-525.390625,-31.25
-1000.0,-1000.0,-835.9375,-1000.0
119.62890625,-206.54296875,-772.94921875,-78.61328125
-753.90625,-806.15234375,-507.8125,-762.6953125
192.87109375,237.79296875,-484.375,192.87109375
-1000.0,-1000.0,-744.62890625,-1000.0
-273.92578125,-448.2421875,-763.18359375,-186.5234375
-799.8046875,-896.484375,-566.89453125,-823.73046875
382.32421875,517.578125,-286.62109375,514.6484375
-1000.0,-1000.0,-517.08984375,-1000.0
-393.06640625,-882.8125,-874.0234375,-555.17578125
-914.55078125,616.2109375,-642.578125,985.83984375
853.515625,-992.1875,-272.4609375,997.55859375
-718.75,-426.26953125,-495.60546875,-458.49609375
-901.3671875,-1000.0,-871.58203125,-1000.0
651.3671875,-4.39453125,-664.55078125,327.63671875
-818.359375,-806.15234375,-470.21484375,-773.4375
-50.78125,102.5390625,-577.63671875,83.984375
-1000.0,-1000.0,-800.78125,-1000.0
-3.41796875,-252.9296875,-706.54296875,-209.47265625
-759.27734375,-812.98828125,-383.7890625,-789.55078125
202.63671875,292.48046875,-466.796875,225.09765625
-1000.0,-1000.0,-777.34375,-1000.0
-275.87890625,-540.0390625,-781.73828125,-272.4609375
-810.546875,-972.65625,-604.98046875,-825.68359375
493.65234375,666.015625,-533.203125,599.609375
-1000.0,-885.25390625,-691.89453125,-1000.0
-506.34765625,-998.53515625,-812.98828125,-683.10546875
-986.81640625,451.66015625,-669.921875,875.0
976.07421875,-909.1796875,-419.921875,-892.578125
-511.71875,-270.5078125,-552.24609375,-256.34765625
-1000.0,-1000.0,-760.25390625,-1000.0
448.2421875,-106.93359375,-654.296875,156.25
-781.25,-805.6640625,-546.875,-756.34765625
72.265625,169.921875,-564.94140625,191.40625
-1000.0,-1000.0,-730.46875,-1000.0
-127.44140625,-309.08203125,-747.0703125,-269.53125
-770.5078125,-828.61328125,-598.6328125,-796.38671875
213.37890625,357.91015625,-500.0,296.38671875
-1000.0,-1000.0,-692.3828125,-1000.0
-274.4140625,-650.390625,-812.98828125,-355.46875
-823.73046875,920.8984375,-610.83984375,-878.41796875
586.42578125,770.99609375,-381.34765625,740.72265625
-1000.0,-758.7890625,-527.83203125,-863.28125
-619.140625,-1000.0,-845.703125,-864.74609375
925.29296875,271.484375,-697.265625,688.4765625
-909.1796875,-848.14453125,-432.6171875,-839.84375
-291.9921875,-115.234375,-557.12890625,-146.97265625
-1000.0,-1000.0,-830.56640625,-1000.0
260.25390625,-160.15625,-732.421875,39.0625
-758.7890625,-804.6875,-466.796875,-760.7421875
185.546875,208.984375,-496.58203125,200.68359375
-1000.0,-1000.0,-773.4375,-1000.0
-250.0,-373.53515625,-792.96875,-273.92578125
-789.0625,-855.46875,-404.296875,-802.734375
274.4140625,434.5703125,-223.6328125,408.203125
-1000.0,-1000.0,-674.31640625,-1000.0
-291.50390625,-779.78515625,-856.4453125,-464.35546875
-854.98046875,758.7890625,-508.30078125,-946.77734375
717.7734375,917.96875,-381.34765625,880.859375
-907.2265625,-569.82421875,-689.453125,-680.17578125
-752.9296875,-1000.0,-805.6640625,-963.8671875
814.94140625,114.74609375,-655.76171875,566.40625
-861.328125,-816.89453125,-509.27734375,-805.17578125
-161.1328125,15.13671875,-595.703125,-17.08984375
-1000.0,-1000.0,-751.46484375,-1000.0
101.5625,-215.8203125,-658.69140625,-66.40625
-754.8828125,-807.6171875,-527.83203125,-766.6015625
194.3359375,242.67578125,-564.94140625,209.47265625
-1000.0,-1000.0,-728.515625,-1000.0
-274.4140625,-444.3359375,-725.09765625,-274.90234375
-799.8046875,-897.94921875,-611.81640625,-812.98828125
395.99609375,550.78125,-531.25,513.18359375
-1000.0,-1000.0,-700.68359375,-1000.0
-388.18359375,-877.9296875,-830.078125,-563.96484375
-913.0859375,626.46484375,-657.71484375,980.46875
859.86328125,-978.02734375,-449.70703125,-999.51171875
-702.63671875,-397.4609375,-577.63671875,-459.47265625
-917.48046875,-1000.0,-809.5703125,-1000.0
633.7890625,-15.13671875,-698.73046875,330.078125
-816.40625,-811.5234375,-508.7890625,-771.484375
-50.78125,88.8671875,-437.01171875,114.74609375
-1000.0,-1000.0,-692.3828125,-1000.0
-16.11328125,-260.7421875,-803.7109375,-216.30859375
-761.23046875,-815.91796875,-509.27734375,-788.57421875
204.1015625,290.52734375,-376.46484375,225.09765625
-1000.0,-1000.0,-707.03125,-1000.0
-275.87890625,-524.4140625,-838.8671875,-274.90234375
-811.5234375,-967.7734375,-567.3828125,-827.63671875
505.37109375,684.08203125,-366.2109375,605.95703125
-1000.0,-865.234375,-618.65234375,-1000.0
-510.25390625,-998.046875,-867.1875,-699.21875
-987.79296875,454.58984375,-597.16796875,861.328125
978.515625,-903.3203125,-333.984375,-891.11328125
-499.51171875,-252.44140625,-609.375,-255.37109375
-1000.0,-1000.0,-844.23828125,-1000.0
424.31640625,-119.62890625,-704.1015625,144.04296875
-779.78515625,-809.5703125,-461.9140625,-757.32421875
71.77734375,165.52734375,-545.41015625,196.77734375
-1000.0,-1000.0,-812.5,-1000.0
-104.4921875,-286.62109375,-736.328125,-233.3984375
-878.90625,-940.91796875,-506.8359375,-900.87890625
34.1796875,185.546875,-426.26953125,123.046875
-1000.0,-1000.0,-694.82421875,-1000.0
-272.4609375,-645.01953125,-750.0,-343.75
-830.56640625,908.69140625,-563.96484375,-883.7890625
598.14453125,807.12890625,-518.5546875,754.39453125
-1000.0,-719.7265625,-627.9296875,-845.21484375
-617.67578125,-1000.0,-785.64453125,-869.140625
930.6640625,281.73828125,-692.3828125,687.98828125
-916.50390625,-854.00390625,-529.296875,-839.84375
-293.9453125,-130.37109375,-602.5390625,-146.97265625
-1000.0,-1000.0,-785.15625,-1000.0
236.328125,-171.875,-725.09765625,37.109375
-757.8125,-807.6171875,-492.1875,-760.7421875
186.03515625,209.9609375,-460.44921875,201.171875
-1000.0,-1000.0,-700.68359375,-1000.0
-250.0,-369.140625,-790.52734375,-274.4140625
-789.0625,-854.00390625,-609.86328125,-803.7109375
283.69140625,437.01171875,-433.59375,417.48046875
-1000.0,-1000.0,-643.5546875,-1000.0
-297.8515625,-781.73828125,-843.26171875,-476.5625
-852.5390625,760.25390625,-622.55859375,-952.63671875
710.9375,911.62109375,-433.10546875,886.71875
-880.37109375,-573.2421875,-601.07421875,-657.2265625
-733.88671875,-1000.0,-796.875,-1000.0
792.96875,95.703125,-692.3828125,501.953125
-856.93359375,-825.1953125,-276.3671875,-797.8515625
-161.62109375,-1.46484375,-350.5859375,-7.8125
-1000.0,-1000.0,-848.6328125,-1000.0
108.3984375,-207.51953125,-763.671875,-88.8671875
-754.39453125,-806.640625,-343.75,-770.01953125
193.84765625,249.51171875,-378.41796875,211.9140625
-1000.0,-1000.0,-825.68359375,-1000.0
-274.4140625,-449.21875,-760.7421875,-274.90234375
-800.78125,-898.92578125,-529.296875,-813.4765625
398.4375,543.9453125,-498.53515625,517.578125
-1000.0,-997.0703125,-694.82421875,-1000.0
-412.59765625,-914.0625,-764.16015625,-554.6875
-923.33984375,572.265625,-575.68359375,987.3046875
865.234375,-968.26171875,-519.04296875,995.60546875
-702.1484375,-391.11328125,-648.4375,-452.1484375
-918.9453125,-1000.0,-807.6171875,-1000.0
627.44140625,-13.18359375,-705.56640625,293.9453125
-812.98828125,-804.19921875,-519.53125,-770.5078125
-33.69140625,115.72265625,-578.125,107.91015625
-1000.0,-1000.0,-766.6015625,-1000.0
-17.578125,-259.27734375,-768.5546875,-222.65625
-759.765625,-813.4765625,-533.69140625,-791.015625
203.61328125,291.50390625,-466.796875,226.5625
-1000.0,-1000.0,-666.9921875,-1000.0
-275.87890625,-557.6171875,-747.0703125,-278.3203125
-811.03515625,-988.28125,-641.11328125,-828.61328125
499.0234375,661.1328125,-513.18359375,606.4453125
-1000.0,-888.671875,-657.71484375,-1000.0
-520.99609375,-1000.0,-830.56640625,-717.28515625
-998.046875,429.19921875,-696.2890625,843.75
991.2109375,-895.5078125,-439.94140625,-887.20703125
-493.65234375,-241.69921875,-537.59765625,-255.37109375
-1000.0,-1000.0,-827.63671875,-1000.0
447.75390625,-98.6328125,-757.8125,137.6953125
-780.2734375,-804.19921875,-420.41015625,-757.8125
87.40234375,166.9921875,-321.2890625,192.87109375
-1000.0,-1000.0,-739.2578125,-1000.0
-141.6015625,-319.3359375,-812.98828125,-270.01953125
-771.97265625,-833.0078125,-448.2421875,-796.875
214.84375,364.2578125,-405.2734375,309.5703125
-1000.0,-1000.0,-772.94921875,-1000.0
-273.92578125,-652.34375,-817.87109375,-371.09375
-825.68359375,905.76171875,-585.9375,-887.20703125
604.00390625,816.40625,-471.6796875,758.7890625
-1000.0,-709.9609375,-673.33984375,-847.16796875
-617.1875,-1000.0,-815.91796875,-866.2109375
929.6875,281.25,-629.8828125,687.5
-911.62109375,-847.16796875,-399.4140625,-836.9140625
-278.3203125,-105.95703125,-522.4609375,-129.8828125
-1000.0,-1000.0,-818.359375,-1000.0
217.28515625,-183.10546875,-651.3671875,35.64453125
-756.8359375,-809.5703125,-429.19921875,-759.765625
187.5,210.44921875,-588.37890625,200.68359375
-1000.0,-1000.0,-774.90234375,-1000.0
-264.16015625,-392.578125,-731.4453125,-274.4140625
-792.48046875,-865.72265625,-583.0078125,-803.7109375
291.50390625,454.1015625,-533.203125,416.9921875
-1000.0,-1000.0,-718.75,-1000.0
-293.45703125,-770.01953125,-784.1796875,-480.95703125
-840.33203125,786.62109375,-621.58203125,-932.6171875
687.98828125,893.5546875,-509.27734375,829.1015625
-961.9140625,-607.421875,-604.98046875,-743.65234375
-749.0234375,-1000.0,-774.90234375,-1000.0
812.98828125,125.0,-709.9609375,493.1640625
-860.3515625,-817.3828125,-499.0234375,-798.33984375
-150.390625,20.5078125,-511.23046875,5.859375
-1000.0,-1000.0,-739.74609375,-1000.0
96.19140625,-215.8203125,-756.34765625,-100.09765625
-754.39453125,-807.6171875,-524.90234375,-770.99609375
194.82421875,245.60546875,-501.953125,212.890625
-1000.0,-1000.0,-735.3515625,-1000.0
-274.4140625,-463.37890625,-771.484375,-274.90234375
-801.26953125,-907.71484375,-570.3125,-814.453125
401.85546875,536.1328125,-291.9921875,529.78515625
-1000.0,-1000.0,-516.6015625,-1000.0
-420.41015625,-909.66796875,-859.375,-578.61328125
-925.78125,579.1015625,-660.64453125,976.07421875
864.74609375,-979.4921875,-312.98828125,998.53515625
-699.21875,-404.78515625,-512.20703125,-449.21875
-936.03515625,-1000.0,-890.13671875,-1000.0
632.32421875,-4.8828125,-677.734375,296.875
-867.1875,-863.28125,-446.2890625,-825.1953125
-117.67578125,24.90234375,-557.6171875,33.203125
-1000.0,-1000.0,-814.94140625,-1000.0
-24.4140625,-264.16015625,-728.02734375,-232.421875
-762.6953125,-817.3828125,-423.33984375,-794.43359375
204.58984375,304.6875,-508.7890625,226.5625
-1000.0,-1000.0,-772.94921875,-1000.0
-275.87890625,-544.43359375,-783.69140625,-271.97265625
-812.01171875,-979.98046875,-606.4453125,-828.125
509.765625,687.98828125,-531.25,615.234375
-1000.0,-857.91015625,-684.5703125,-1000.0
-523.4375,-1000.0,-797.36328125,-721.19140625
-997.55859375,423.33984375,-681.15234375,839.84375
991.69921875,-895.5078125,-428.22265625,-883.7890625
-486.328125,-237.79296875,-552.734375,-244.140625
-1000.0,-1000.0,-757.32421875,-1000.0
424.31640625,-116.2109375,-643.5546875,139.6484375
-777.83203125,-805.6640625,-543.9453125,-756.8359375
97.16796875,174.8046875,-557.6171875,192.87109375
-1000.0,-1000.0,-742.1875,-1000.0
-150.87890625,-323.2421875,-776.85546875,-270.5078125
-773.4375,-834.47265625,-585.44921875,-797.36328125
215.33203125,363.28125,-486.81640625,317.87109375
-1000.0,-1000.0,-707.03125,-1000.0
-273.92578125,-654.78515625,-808.10546875,-384.27734375
-825.1953125,924.31640625,-592.28515625,-891.11328125
601.07421875,795.41015625,-366.2109375,759.765625
-1000.0,-736.81640625,-514.16015625,-844.23828125
-621.58203125,-1000.0,-843.26171875,-880.859375
920.41015625,271.484375,-726.07421875,666.015625
-897.4609375,-838.8671875,-387.20703125,-833.49609375
-258.30078125,-80.078125,-488.28125,-120.60546875
-1000.0,-1000.0,-855.95703125,-1000.0
237.79296875,-165.52734375,-738.28125,17.578125
-757.32421875,-803.22265625,-469.7265625,-761.71875
187.01171875,213.8671875,-520.01953125,202.63671875
-1000.0,-1000.0,-777.83203125,-1000.0
-270.01953125,-390.625,-785.15625,-273.92578125
-795.41015625,-863.28125,-389.6484375,-804.6875
293.45703125,443.359375,-261.71875,420.41015625
-1000.0,-1000.0,-709.47265625,-1000.0
-318.84765625,-806.640625,-833.984375,-494.140625
-867.1875,722.65625,-498.046875,-960.9375
740.234375,935.546875,-362.3046875,890.625
-881.8359375,-542.48046875,-692.87109375,-661.1328125
-782.2265625,-1000.0,-810.05859375,-999.51171875
783.203125,82.51953125,-639.16015625,511.23046875
-851.07421875,-812.98828125,-496.09375,-797.36328125
-137.20703125,36.62109375,-596.19140625,12.6953125
-1000.0,-1000.0,-766.6015625,-1000.0
88.37890625,-218.75,-675.78125,-105.46875
-754.39453125,-806.640625,-530.2734375,-771.484375
196.77734375,252.44140625,-551.26953125,214.84375
-1000.0,-1000.0,-736.328125,-1000.0
-256.34765625,-447.265625,-762.6953125,-256.34765625
-857.91015625,-949.70703125,-605.95703125,-871.58203125
322.265625,490.234375,-462.40234375,441.89453125
-1000.0,-983.88671875,-642.578125,-1000.0
-427.734375,-912.109375,-833.984375,-604.00390625
-912.59765625,601.5625,-667.48046875,999.0234375
820.3125,979.4921875,-477.05078125,908.69140625
-773.4375,-468.75,-590.33203125,-611.81640625
-918.45703125,-1000.0,-800.78125,-1000.0
613.76953125,-19.04296875,-702.1484375,284.1796875
-811.03515625,-806.15234375,-464.84375,-773.4375
-16.11328125,119.62890625,-392.578125,137.6953125
-1000.0,-1000.0,-681.640625,-1000.0
-21.97265625,-259.765625,-806.640625,-237.3046875
-758.7890625,-813.4765625,-517.08984375,-791.50390625
203.61328125,301.7578125,-442.3828125,227.05078125
-1000.0,-1000.0,-751.46484375,-1000.0
-275.87890625,-569.82421875,-822.75390625,-278.3203125
-812.5,-996.09375,-532.71484375,-830.56640625
503.90625,662.109375,-314.94140625,616.2109375
-1000.0,-878.90625,-607.421875,-1000.0
-541.50390625,-1000.0,-878.90625,-719.7265625
990.72265625,385.7421875,-600.09765625,840.33203125
997.55859375,-895.01953125,-276.85546875,-882.8125
-484.86328125,-240.72265625,-574.21875,-236.81640625
-1000.0,-1000.0,-852.5390625,-1000.0
422.8515625,-114.74609375,-705.56640625,131.34765625
-775.87890625,-803.7109375,-504.8828125,-756.8359375
115.72265625,185.546875,-569.82421875,193.359375
-1000.0,-1000.0,-796.38671875,-1000.0
-142.578125,-317.3828125,-749.51171875,-270.99609375
-769.04296875,-830.56640625,-494.62890625,-796.38671875
213.8671875,371.09375,-424.31640625,322.75390625
-1000.0,-1000.0,-704.1015625,-1000.0
-274.4140625,-701.66015625,-736.81640625,-361.81640625
-826.171875,864.74609375,-552.24609375,-881.34765625
602.05078125,809.5703125,-528.80859375,754.8828125
-1000.0,-716.30859375,-659.1796875,-842.28515625
-642.578125,-1000.0,-757.8125,-881.8359375
908.203125,220.703125,-666.9921875,664.55078125
-895.01953125,-839.84375,-521.97265625,-832.03125
-260.25390625,-87.890625,-570.3125,-112.79296875
-1000.0,-1000.0,-760.25390625,-1000.0
225.5859375,-169.921875,-712.890625,13.18359375
-756.34765625,-804.19921875,-482.91015625,-761.71875
187.01171875,215.8203125,-445.80078125,202.63671875
-1000.0,-1000.0,-710.44921875,-1000.0
-264.16015625,-386.23046875,-796.875,-274.4140625
-793.9453125,-860.3515625,-554.6875,-805.17578125
296.38671875,434.5703125,-379.39453125,435.546875
-1000.0,-1000.0,-630.859375,-1000.0
-329.1015625,-819.3359375,-848.6328125,-501.953125
-870.60546875,707.51953125,-631.34765625,-961.9140625
743.65234375,933.59375,-447.265625,888.18359375
-880.859375,-552.24609375,-620.1171875,-653.3203125
-780.76171875,-1000.0,-805.17578125,-1000.0
780.76171875,91.30859375,-707.51953125,469.7265625
-846.19140625,-812.01171875,-311.5234375,-792.48046875
-119.62890625,43.45703125,-359.375,18.06640625
-1000.0,-1000.0,-855.95703125,-1000.0
99.12109375,-211.42578125,-760.7421875,-111.81640625
-751.953125,-804.6875,-405.76171875,-771.97265625
193.84765625,256.34765625,-458.49609375,213.8671875
-1000.0,-1000.0,-792.48046875,-1000.0
-274.90234375,-482.421875,-741.69921875,-274.4140625
-802.24609375,-919.43359375,-518.5546875,-814.94140625
408.69140625,547.8515625,-514.6484375,529.78515625
-1000.0,-990.234375,-708.49609375,-1000.0
-433.59375,-941.89453125,-760.25390625,-573.2421875
-937.01171875,526.3671875,-575.1953125,977.5390625
886.71875,-953.125,-527.83203125,-998.53515625
-677.734375,-371.09375,-663.57421875,-438.4765625
-927.24609375,-1000.0,-817.87109375,-1000.0
615.72265625,-17.578125,-707.03125,263.18359375
-807.6171875,-802.734375,-512.6953125,-766.6015625
-4.8828125,129.39453125,-565.4296875,137.20703125
-1000.0,-1000.0,-770.99609375,-1000.0
-26.85546875,-268.5546875,-766.6015625,-232.421875
-758.7890625,-815.4296875,-544.921875,-783.203125
203.61328125,296.38671875,-484.375,208.0078125
-1000.0,-1000.0,-665.0390625,-1000.0
-275.87890625,-583.984375,-728.02734375,-193.84765625
-812.5,987.3046875,-621.58203125,-842.28515625
510.7421875,684.08203125,-494.140625,616.2109375
-1000.0,-871.09375,-648.4375,-1000.0
-529.296875,-1000.0,-828.125,-733.3984375
991.2109375,416.50390625,-699.70703125,821.77734375
-986.81640625,-884.765625,-446.77734375,-875.9765625
-454.58984375,-216.796875,-479.00390625,-220.21484375
-1000.0,-1000.0,-817.3828125,-1000.0
430.6640625,-104.00390625,-762.20703125,125.0
-777.83203125,-803.7109375,-387.6953125,-756.34765625
113.28125,173.33984375,-412.109375,193.84765625
-1000.0,-1000.0,-810.546875,-1000.0
-174.31640625,-335.44921875,-789.0625,-270.99609375
-776.85546875,-839.35546875,-450.1953125,-797.8515625
218.26171875,368.1640625,-365.72265625,324.21875
-1000.0,-1000.0,-758.30078125,-1000.0
-273.4375,-688.4765625,-827.1484375,-398.92578125
-826.66015625,867.1875,-583.49609375,-895.99609375
609.375,831.0546875,-486.328125,760.7421875
-1000.0,-694.82421875,-682.6171875,-843.75
-631.8359375,-1000.0,-822.75390625,-886.71875
914.55078125,250.48828125,-632.32421875,655.76171875
-895.5078125,-836.9140625,-405.2734375,-830.078125
-243.65234375,-72.75390625,-543.45703125,-107.91015625
-1000.0,-1000.0,-831.54296875,-1000.0
206.0546875,-185.05859375,-657.2265625,12.20703125
-754.39453125,-807.12890625,-419.921875,-761.23046875
187.98828125,217.28515625,-541.015625,202.63671875
-1000.0,-1000.0,-757.32421875,-1000.0
-270.5078125,-400.390625,-734.86328125,-274.4140625
-795.41015625,-868.1640625,-595.703125,-805.17578125
304.6875,457.03125,-553.7109375,435.05859375
-1000.0,-1000.0,-706.54296875,-1000.0
-323.2421875,-806.640625,-787.109375,-503.41796875
-869.140625,721.19140625,-604.4921875,-963.8671875
747.55859375,945.80078125,-495.1171875,892.08984375
-873.53515625,-528.80859375,-602.5390625,-645.5078125
-785.64453125,-1000.0,-760.25390625,-1000.0
779.296875,90.8203125,-733.3984375,460.44921875
-848.14453125,-813.4765625,-515.625,-790.0390625
-126.46484375,37.59765625,-571.77734375,27.34375
-1000.0,-1000.0,-814.94140625,-1000.0
87.890625,-219.7265625,-754.39453125,-114.2578125
-753.41796875,-807.12890625,-501.46484375,-771.97265625
194.82421875,250.0,-451.171875,213.8671875
-1000.0,-1000.0,-723.14453125,-1000.0
-274.4140625,-472.65625,-774.90234375,-274.4140625
-802.24609375,-915.52734375,-585.44921875,-815.4296875
410.15625,549.8046875,-317.3828125,529.78515625
-1000.0,-996.58203125,-509.27734375,-1000.0
-429.19921875,-915.0390625,-875.0,-602.05078125
-934.5703125,564.94140625,-646.97265625,958.49609375
884.765625,-958.49609375,-339.35546875,-988.76953125
-667.48046875,-362.79296875,-552.24609375,-423.828125
-960.9375,-1000.0,-871.09375,-1000.0
655.2734375,28.3203125,-685.546875,306.640625
-952.63671875,-950.1953125,-471.19140625,-912.109375
-281.25,-149.4140625,-558.10546875,-134.27734375
-1000.0,-1000.0,-781.25,-1000.0
-28.3203125,-264.6484375,-721.6796875,-231.4453125
-769.53125,-826.171875,-396.97265625,-800.78125
204.58984375,308.59375,-469.23828125,226.5625
-1000.0,-1000.0,-780.2734375,-1000.0
-275.87890625,-583.0078125,-762.20703125,-271.97265625
-812.98828125,987.79296875,-582.03125,-828.125
512.6953125,696.77734375,-525.87890625,613.76953125
-1000.0,-854.4921875,-685.05859375,-1000.0
-539.0625,-1000.0,-805.17578125,-741.69921875
989.74609375,403.3203125,-658.69140625,813.4765625
-993.1640625,-886.71875,-423.33984375,-874.51171875
-462.890625,-217.28515625,-560.546875,-227.05078125
-1000.0,-1000.0,-749.0234375,-1000.0
408.69140625,-121.58203125,-655.76171875,136.23046875
-775.390625,-804.6875,-505.37109375,-755.859375
119.62890625,182.6171875,-535.64453125,192.87109375
-1000.0,-1000.0,-744.62890625,-1000.0
-177.24609375,-331.0546875,-752.9296875,-270.99609375
-777.34375,-836.42578125,-596.19140625,-798.828125
218.26171875,370.60546875,-500.9765625,327.1484375
-1000.0,-1000.0,-704.58984375,-1000.0
-273.4375,-687.98828125,-824.70703125,-411.62109375
-826.66015625,872.55859375,-619.62890625,-902.34375
609.375,819.82421875,-343.26171875,766.6015625
-1000.0,-707.03125,-506.34765625,-836.42578125
-636.23046875,-1000.0,-855.46875,-896.484375
912.109375,249.51171875,-713.8671875,642.08984375
-895.5078125,-839.84375,-449.21875,-826.66015625
-242.1875,-79.1015625,-546.38671875,-98.14453125
-1000.0,-1000.0,-821.77734375,-1000.0
198.2421875,-183.59375,-744.62890625,4.8828125
-754.8828125,-807.12890625,-415.52734375,-761.23046875
188.4765625,215.33203125,-447.265625,203.125
-1000.0,-1000.0,-788.0859375,-1000.0
-270.99609375,-396.484375,-774.90234375,-274.4140625
-794.43359375,-869.140625,-420.8984375,-805.17578125
312.5,472.16796875,-278.3203125,436.03515625
-1000.0,-1000.0,-711.42578125,-1000.0
-315.4296875,-794.921875,-830.56640625,-505.37109375
-867.67578125,736.328125,-564.94140625,-968.75
753.90625,950.1953125,-465.8203125,903.80859375
-859.86328125,-509.765625,-674.8046875,-640.13671875
-801.26953125,-1000.0,-814.94140625,-1000.0
768.06640625,62.98828125,-681.640625,498.046875
-850.09765625,-818.359375,-474.609375,-791.50390625
-135.7421875,26.3671875,-553.7109375,36.1328125
-1000.0,-1000.0,-764.16015625,-1000.0
61.03515625,-230.95703125,-664.0625,-98.14453125
-757.32421875,-810.546875,-539.0625,-767.578125
197.75390625,260.25390625,-559.08203125,211.42578125
-1000.0,-1000.0,-731.4453125,-1000.0
-275.390625,-446.77734375,-759.27734375,-274.90234375
-802.734375,-905.76171875,-604.98046875,-815.4296875
428.7109375,600.09765625,-486.328125,530.2734375
-1000.0,-952.63671875,-666.015625,-1000.0
-428.7109375,-915.52734375,-821.77734375,-597.65625
-931.15234375,587.890625,-671.875,953.61328125
881.8359375,-970.703125,-478.02734375,-971.19140625
-668.45703125,-378.90625,-574.21875,-403.3203125
-958.49609375,-1000.0,-808.59375,-1000.0
579.58984375,-59.08203125,-707.03125,269.53125
-807.12890625,-812.01171875,-463.37890625,-765.13671875
-23.4375,108.3984375,-406.73828125,151.3671875
-1000.0,-1000.0,-696.77734375,-1000.0
-54.6875,-273.92578125,-800.78125,-242.1875
-765.13671875,-819.82421875,-523.4375,-791.9921875
207.51953125,307.6171875,-364.74609375,229.4921875
-1000.0,-1000.0,-670.41015625,-1000.0
-275.87890625,-541.015625,-851.5625,-269.53125
-813.96484375,-981.93359375,-563.4765625,-889.6484375
523.4375,702.63671875,-374.0234375,527.83203125
-1000.0,-830.078125,-636.23046875,-1000.0
-552.24609375,-1000.0,-865.234375,-748.53515625
987.79296875,383.30078125,-613.76953125,803.7109375
999.0234375,-896.97265625,-303.7109375,-874.51171875
-464.84375,-241.69921875,-555.6640625,-223.14453125
-1000.0,-1000.0,-856.4453125,-1000.0
358.88671875,-134.27734375,-681.640625,115.234375
-769.53125,-808.10546875,-482.421875,-757.32421875
120.1171875,184.5703125,-583.49609375,194.3359375
-1000.0,-1000.0,-791.9921875,-1000.0
-156.25,-321.2890625,-752.44140625,-271.484375
-771.97265625,-833.0078125,-505.37109375,-797.36328125
215.33203125,384.27734375,-447.265625,334.9609375
-1000.0,-1000.0,-720.21484375,-1000.0
-273.92578125,-697.75390625,-741.69921875,-388.18359375
-827.1484375,866.69921875,-557.12890625,-890.13671875
608.88671875,824.70703125,-553.22265625,757.8125
-1000.0,-692.3828125,-677.734375,-841.30859375
-649.4140625,-1000.0,-784.66796875,-892.08984375
901.85546875,209.47265625,-668.9453125,645.99609375
-885.25390625,-831.54296875,-500.9765625,-820.80078125
-264.16015625,-97.65625,-572.75390625,-119.140625
-1000.0,-1000.0,-748.53515625,-1000.0
292.96875,-92.28515625,-697.75390625,95.21484375
-765.625,-815.91796875,-534.66796875,-772.4609375
187.98828125,221.19140625,-519.53125,203.125
-1000.0,-1000.0,-701.66015625,-1000.0
-270.99609375,-387.20703125,-802.734375,-274.4140625
-795.8984375,-862.3046875,-597.16796875,-805.17578125
307.12890625,455.56640625,-484.375,436.03515625
-1000.0,-1000.0,-701.66015625,-1000.0
-333.984375,-816.89453125,-837.890625,-503.90625
-871.58203125,712.40234375,-645.01953125,-966.796875
744.62890625,941.89453125,-443.359375,899.90234375
-875.9765625,-533.69140625,-591.796875,-635.7421875
-796.38671875,-1000.0,-808.10546875,-1000.0
764.6484375,78.61328125,-715.8203125,467.7734375
-844.23828125,-812.98828125,-309.08203125,-790.52734375
-118.65234375,41.50390625,-340.8203125,29.296875
-1000.0,-1000.0,-829.58984375,-1000.0
85.44921875,-217.7734375,-784.1796875,-114.74609375
-752.9296875,-806.15234375,-300.29296875,-771.484375
194.82421875,257.32421875,-292.48046875,213.8671875
-1000.0,-1000.0,-818.84765625,-1000.0
-274.4140625,-487.3046875,-767.08984375,-274.4140625
-802.734375,-923.33984375,-557.12890625,-814.94140625
410.64453125,553.7109375,-530.2734375,530.2734375
-1000.0,-984.86328125,-703.125,-1000.0
-447.75390625,-951.66015625,-767.578125,-578.125
-942.3828125,513.671875,-564.453125,969.23828125
888.18359375,-951.171875,-458.984375,-985.83984375
-675.29296875,-366.2109375,-625.0,-416.9921875
-939.94140625,-1000.0,-797.36328125,-1000.0
597.16796875,-27.83203125,-675.78125,261.71875
-805.17578125,-801.26953125,-511.23046875,-766.11328125
9.27734375,138.18359375,-569.82421875,140.625
-1000.0,-1000.0,-786.62109375,-1000.0
-51.7578125,-268.06640625,-766.6015625,-245.1171875
-761.71875,-814.453125,-548.828125,-794.43359375
206.54296875,303.22265625,-472.65625,229.00390625
-1000.0,-1000.0,-649.4140625,-1000.0
-275.87890625,-593.26171875,-739.2578125,-292.48046875
-813.4765625,981.4453125,-633.7890625,-834.9609375
513.671875,688.4765625,-506.8359375,617.67578125
-1000.0,-859.86328125,-654.296875,-1000.0
-549.8046875,-1000.0,-811.03515625,-734.375
982.91015625,383.7890625,-685.05859375,818.84765625
-987.79296875,-887.6953125,-461.9140625,-874.0234375
-459.9609375,-225.09765625,-537.59765625,-212.40234375
-1000.0,-1000.0,-827.63671875,-1000.0
416.015625,-112.79296875,-765.13671875,118.1640625
-775.390625,-803.7109375,-423.828125,-756.34765625
125.0,180.6640625,-410.15625,194.3359375
-1000.0,-1000.0,-793.9453125,-1000.0
-174.8046875,-326.66015625,-805.6640625,-270.99609375
-775.87890625,-834.9609375,-460.9375,-798.33984375
217.7734375,377.44140625,-390.625,326.66015625
-1000.0,-1000.0,-754.8828125,-1000.0
-273.4375,-702.63671875,-812.5,-403.80859375
-826.66015625,863.76953125,-575.68359375,-897.4609375
606.93359375,812.01171875,-387.20703125,762.20703125
-1000.0,-710.44921875,-602.5390625,-845.21484375
-644.53125,-1000.0,-857.421875,-882.8125
905.76171875,214.84375,-544.43359375,659.1796875
-892.578125,-839.84375,-207.51953125,-828.61328125
-248.046875,-82.51953125,-501.46484375,-99.609375
-1000.0,-1000.0,-846.6796875,-1000.0
215.8203125,-181.640625,-659.1796875,16.11328125
-755.859375,-806.15234375,-456.0546875,-760.25390625
187.5,221.19140625,-581.0546875,202.1484375
-1000.0,-1000.0,-764.16015625,-1000.0
-272.4609375,-390.13671875,-752.44140625,-276.3671875
-788.57421875,-860.83984375,-587.40234375,-797.8515625
289.55078125,450.68359375,-557.12890625,416.9921875
-1000.0,-1000.0,-715.33203125,-1000.0
-242.67578125,-797.8515625,-767.08984375,-408.69140625
-880.859375,697.75390625,-607.421875,-973.14453125
743.1640625,938.96484375,-469.23828125,896.484375
-874.51171875,-540.0390625,-599.609375,-635.7421875
-795.8984375,-1000.0,-751.953125,-1000.0
765.625,76.171875,-707.03125,466.30859375
-845.21484375,-813.4765625,-515.625,-790.0390625
-125.48828125,41.50390625,-559.08203125,31.25
-1000.0,-1000.0,-800.78125,-1000.0
90.33203125,-218.75,-763.671875,-113.76953125
-753.41796875,-806.15234375,-527.34375,-771.484375
194.82421875,256.8359375,-504.39453125,213.8671875
-1000.0,-1000.0,-735.83984375,-1000.0
-274.90234375,-474.12109375,-777.34375,-274.4140625
-802.734375,-914.0625,-591.796875,-815.4296875
412.109375,545.8984375,-295.41015625,530.2734375
-1000.0,-993.65234375,-513.671875,-1000.0
-440.4296875,-931.15234375,-868.1640625,-605.46875
-938.96484375,546.38671875,-676.26953125,952.63671875
886.71875,-965.33203125,-301.7578125,-979.98046875
-674.8046875,-382.8125,-473.6328125,-419.43359375
-939.94140625,-1000.0,-889.6484375,-1000.0
598.6328125,-33.69140625,-679.19921875,263.671875
-805.17578125,-803.22265625,-431.640625,-766.11328125
-0.9765625,132.8125,-536.1328125,140.625
-1000.0,-1000.0,-787.59765625,-1000.0
-29.78515625,-265.13671875,-711.42578125,-240.234375
-758.7890625,-813.96484375,-411.1328125,-791.9921875
204.1015625,307.12890625,-497.55859375,227.05078125
-1000.0,-1000.0,-776.85546875,-1000.0
-275.87890625,-587.40234375,-797.8515625,-271.484375
-813.4765625,988.28125,-585.9375,-827.63671875
510.7421875,684.08203125,-497.0703125,614.2578125
-1000.0,-859.375,-695.3125,-1000.0
-552.734375,-1000.0,-805.6640625,-738.76953125
984.86328125,372.55859375,-668.45703125,814.94140625
-996.58203125,-892.08984375,-456.0546875,-872.55859375
-474.12109375,-233.88671875,-570.80078125,-216.796875
-1000.0,-1000.0,-752.44140625,-1000.0
406.25,-126.953125,-653.80859375,134.765625
-773.4375,-805.17578125,-532.71484375,-755.37109375
122.55859375,187.01171875,-563.4765625,192.87109375
-1000.0,-1000.0,-768.5546875,-1000.0
-152.34375,-321.77734375,-782.2265625,-271.97265625
-770.5078125,-832.51953125,-586.42578125,-797.36328125
214.84375,373.046875,-501.46484375,334.9609375
-1000.0,-1000.0,-698.73046875,-1000.0
-273.92578125,-693.359375,-808.10546875,-395.5078125
-826.171875,875.0,-609.375,-894.53125
605.46875,802.734375,-351.07421875,764.16015625
-1000.0,-727.05078125,-491.69921875,-836.42578125
-635.25390625,-1000.0,-837.890625,-891.11328125
910.64453125,237.79296875,-728.515625,651.3671875
-893.06640625,-839.35546875,-394.53125,-830.078125
-244.62890625,-77.1484375,-485.3515625,-106.93359375
-1000.0,-1000.0,-846.6796875,-1000.0
221.6796875,-176.7578125,-745.1171875,4.8828125
-755.859375,-805.17578125,-483.3984375,-762.20703125
187.5,217.7734375,-532.71484375,203.61328125
-1000.0,-1000.0,-784.66796875,-1000.0
-270.5078125,-399.4140625,-792.48046875,-274.4140625
-795.41015625,-867.1875,-409.1796875,-805.17578125
301.7578125,446.2890625,-236.328125,435.546875
-1000.0,-1000.0,-667.96875,-1000.0
-328.125,-827.1484375,-852.5390625,-499.0234375
-870.60546875,696.2890625,-505.859375,-961.9140625
745.1171875,945.3125,-328.61328125,893.06640625
-880.37109375,-535.15625,-672.36328125,-650.390625
-774.90234375,-1000.0,-821.77734375,-1000.0
786.1328125,84.9609375,-660.15625,486.328125
-846.19140625,-808.10546875,-524.90234375,-791.9921875
-109.375,60.05859375,-602.5390625,24.90234375
-1000.0,-1000.0,-743.65234375,-1000.0
89.84375,-222.65625,-674.8046875,-94.7265625
-751.953125,-806.15234375,-542.48046875,-768.06640625
194.3359375,255.37109375,-541.50390625,211.42578125
-1000.0,-1000.0,-755.859375,-1000.0
-274.4140625,-486.328125,-765.625,-274.90234375
-802.734375,-922.36328125,-584.9609375,-815.4296875
406.25,547.36328125,-530.2734375,530.2734375
-1000.0,-992.67578125,-692.3828125,-1000.0
-440.4296875,-939.453125,-821.77734375,-599.609375
-939.94140625,533.69140625,-677.734375,954.58984375
888.18359375,-961.42578125,-448.2421875,-976.5625
-677.734375,-381.8359375,-566.40625,-413.57421875
-929.19921875,-1000.0,-807.12890625,-1000.0
612.3046875,-25.87890625,-689.453125,271.484375
-807.6171875,-804.19921875,-495.1171875,-766.11328125
-1.46484375,127.44140625,-423.33984375,147.4609375
-1000.0,-1000.0,-676.26953125,-1000.0
-35.64453125,-268.5546875,-803.22265625,-245.60546875
-759.765625,-815.91796875,-525.390625,-793.45703125
204.58984375,300.29296875,-387.6953125,228.515625
-1000.0,-1000.0,-704.1015625,-1000.0
-275.87890625,-582.03125,-855.95703125,-286.1328125
-812.5,990.234375,-567.3828125,-833.0078125
509.765625,677.24609375,-335.9375,616.69921875
-1000.0,-870.1171875,-602.5390625,-1000.0
-534.66796875,-1000.0,-870.1171875,-729.4921875
988.28125,390.13671875,-625.48828125,828.125
-986.81640625,-878.41796875,-328.125,-879.39453125
-454.1015625,-204.1015625,-570.80078125,-227.5390625
-1000.0,-1000.0,-831.54296875,-1000.0
422.36328125,-110.83984375,-702.1484375,120.1171875
-774.90234375,-802.24609375,-515.13671875,-757.32421875
125.0,187.01171875,-569.82421875,195.80078125
-1000.0,-1000.0,-774.90234375,-1000.0
-140.625,-312.01171875,-741.2109375,-252.9296875
-828.61328125,-892.08984375,-503.41796875,-852.5390625
127.44140625,275.87890625,-413.0859375,243.1640625
-1000.0,-1000.0,-699.70703125,-1000.0
-273.92578125,-729.98046875,-737.3046875,-361.81640625
-828.61328125,830.078125,-541.9921875,-882.32421875
604.98046875,820.80078125,-540.0390625,754.39453125
-1000.0,-712.890625,-683.10546875,-841.30859375
-638.671875,-1000.0,-758.7890625,-885.25390625
906.73828125,225.09765625,-643.06640625,659.66796875
-889.16015625,-830.56640625,-530.2734375,-831.54296875
-240.72265625,-58.59375,-582.03125,-107.91015625
-1000.0,-1000.0,-765.625,-1000.0
234.86328125,-169.43359375,-709.9609375,2.9296875
-756.34765625,-802.734375,-529.296875,-762.20703125
187.01171875,215.8203125,-499.0234375,203.61328125
-1000.0,-1000.0,-683.10546875,-1000.0
-270.5078125,-394.53125,-799.8046875,-274.4140625
-795.8984375,-864.2578125,-608.3984375,-805.17578125
299.8046875,437.98828125,-427.734375,435.546875
-1000.0,-1000.0,-630.37109375,-1000.0
-333.49609375,-827.1484375,-851.07421875,-500.9765625
-852.5390625,696.2890625,-651.85546875,-949.70703125
702.1484375,938.96484375,-467.28515625,868.1640625
-772.4609375,-536.62109375,-617.67578125,-590.8203125
-565.91796875,-1000.0,-782.71484375,-880.859375
763.18359375,80.56640625,-708.0078125,467.7734375
-845.21484375,-806.640625,-293.45703125,-792.48046875
-127.9296875,23.92578125,-328.125,16.11328125
-1000.0,-1000.0,-842.28515625,-1000.0
180.17578125,-127.9296875,-776.3671875,-24.4140625
-763.671875,-816.89453125,-346.19140625,-782.2265625
194.82421875,253.41796875,-354.4921875,213.8671875
-1000.0,-1000.0,-818.359375,-1000.0
-274.90234375,-486.328125,-769.53125,-274.4140625
-802.24609375,-923.828125,-542.48046875,-814.94140625
410.15625,558.10546875,-527.34375,530.2734375
-1000.0,-984.86328125,-707.51953125,-1000.0
-435.546875,-939.94140625,-772.4609375,-583.984375
-938.96484375,527.83203125,-582.03125,966.30859375
891.11328125,-945.80078125,-515.13671875,-984.86328125
-671.875,-356.93359375,-655.76171875,-420.8984375
-927.734375,-1000.0,-817.3828125,-1000.0
615.234375,-13.671875,-719.7265625,269.04296875
-807.12890625,-801.26953125,-511.23046875,-766.11328125
1.953125,132.8125,-561.5234375,143.06640625
-1000.0,-1000.0,-785.64453125,-1000.0
-35.15625,-269.04296875,-773.92578125,-240.234375
-759.765625,-814.94140625,-545.41015625,-792.96875
204.58984375,299.31640625,-477.05078125,228.515625
-1000.0,-1000.0,-661.62109375,-1000.0
-275.87890625,-590.33203125,-737.79296875,-296.38671875
-812.5,983.88671875,-629.39453125,-836.42578125
509.27734375,677.24609375,-510.25390625,618.1640625
-1000.0,-869.62890625,-645.01953125,-1000.0
-544.43359375,-1000.0,-816.40625,-734.86328125
984.86328125,382.8125,-701.66015625,819.82421875
-989.2578125,-886.23046875,-466.796875,-875.9765625
-460.44921875,-219.23828125,-565.4296875,-220.21484375
-1000.0,-1000.0,-836.42578125,-1000.0
413.0859375,-116.69921875,-738.76953125,118.1640625
-773.92578125,-804.19921875,-398.92578125,-756.8359375
121.09375,178.22265625,-366.69921875,194.3359375
-1000.0,-1000.0,-756.34765625,-1000.0
-156.25,-326.66015625,-820.3125,-271.484375
-771.97265625,-834.9609375,-450.68359375,-797.8515625
215.33203125,375.0,-328.61328125,332.51953125
-1000.0,-1000.0,-734.375,-1000.0
-273.92578125,-693.359375,-831.54296875,-403.3203125
-826.66015625,866.69921875,-590.33203125,-896.484375
608.88671875,823.2421875,-444.3359375,761.71875
-1000.0,-697.265625,-651.85546875,-845.21484375
-639.16015625,-1000.0,-830.078125,-882.32421875
909.66796875,225.5859375,-641.11328125,659.66796875
-893.5546875,-839.84375,-402.34375,-829.1015625
-245.60546875,-81.0546875,-534.66796875,-101.5625
-1000.0,-1000.0,-830.078125,-1000.0
213.8671875,-181.640625,-665.52734375,15.625
-755.37109375,-807.12890625,-400.390625,-760.25390625
187.5,217.7734375,-539.55078125,202.1484375
-1000.0,-1000.0,-782.71484375,-1000.0
-272.4609375,-406.73828125,-735.3515625,-276.3671875
-788.0859375,-872.0703125,-578.61328125,-797.8515625
290.0390625,461.42578125,-545.8984375,416.9921875
-1000.0,-1000.0,-715.33203125,-1000.0
-236.81640625,-819.82421875,-759.765625,-408.203125
-879.8828125,706.0546875,-616.69921875,-973.6328125
746.09375,948.73046875,-534.66796875,896.97265625
-873.046875,-527.83203125,-618.1640625,-631.34765625
-785.64453125,-1000.0,-759.765625,-1000.0
777.83203125,90.33203125,-718.75,453.125
-846.6796875,-812.5,-497.55859375,-788.57421875
-121.58203125,41.9921875,-532.71484375,33.69140625
-1000.0,-1000.0,-791.015625,-1000.0
87.40234375,-217.7734375,-772.94921875,-113.76953125
-752.9296875,-806.15234375,-517.578125,-771.484375
194.82421875,254.8828125,-477.05078125,213.8671875
-1000.0,-1000.0,-736.328125,-1000.0
-274.90234375,-477.5390625,-781.73828125,-274.4140625
-802.734375,-916.9921875,-593.75,-815.91796875
413.57421875,548.828125,-293.9453125,530.2734375
-1000.0,-992.1875,-491.69921875,-1000.0
-440.91796875,-931.15234375,-873.046875,-614.2578125
-938.96484375,543.9453125,-666.50390625,945.80078125
886.23046875,-960.9375,-365.72265625,-974.12109375
-673.828125,-373.53515625,-558.10546875,-413.57421875
-943.84765625,-1000.0,-856.93359375,-1000.0
594.23828125,-41.015625,-671.875,262.20703125
-806.15234375,-806.15234375,-404.296875,-764.6484375
-0.48828125,126.46484375,-510.25390625,153.80859375
-1000.0,-1000.0,-824.21875,-1000.0
-55.17578125,-275.87890625,-730.95703125,-241.69921875
-763.18359375,-818.84765625,-413.57421875,-791.50390625
207.03125,309.08203125,-499.51171875,227.5390625
-1000.0,-1000.0,-781.73828125,-1000.0
-275.87890625,-586.9140625,-802.734375,-286.1328125
-813.4765625,982.421875,-605.95703125,-833.0078125
519.04296875,705.078125,-507.8125,616.2109375
-1000.0,-842.28515625,-687.5,-1000.0
-548.828125,-1000.0,-809.5703125,-744.140625
-995.1171875,413.0859375,-668.45703125,833.49609375
958.0078125,-941.40625,-421.38671875,-928.22265625
-537.109375,-300.78125,-539.0625,-299.31640625
-1000.0,-1000.0,-747.55859375,-1000.0
405.2734375,-125.9765625,-651.3671875,127.9296875
-776.3671875,-807.12890625,-547.36328125,-757.8125
125.0,185.05859375,-585.9375,193.359375
-1000.0,-1000.0,-742.67578125,-1000.0
-175.78125,-333.0078125,-743.65234375,-271.97265625
-776.3671875,-837.40234375,-592.7734375,-797.8515625
217.7734375,372.55859375,-506.8359375,335.9375
-1000.0,-1000.0,-701.171875,-1000.0
-273.4375,-703.61328125,-805.6640625,-404.296875
-827.1484375,858.3984375,-601.5625,-902.34375
609.375,817.3828125,-355.95703125,780.2734375
-1000.0,-710.44921875,-508.7890625,-815.91796875
-642.08984375,-1000.0,-837.890625,-900.390625
905.76171875,228.515625,-695.80078125,641.11328125
-890.13671875,-836.42578125,-389.16015625,-826.66015625
-236.81640625,-67.87109375,-505.859375,-96.19140625
-1000.0,-1000.0,-855.46875,-1000.0
216.796875,-174.8046875,-747.0703125,-2.9296875
-754.8828125,-803.7109375,-477.5390625,-762.20703125
187.98828125,220.21484375,-531.25,204.1015625
-1000.0,-1000.0,-780.2734375,-1000.0
-270.99609375,-404.78515625,-800.29296875,-274.4140625
-795.8984375,-870.60546875,-411.62109375,-805.17578125
309.5703125,459.9609375,-207.03125,435.546875
-1000.0,-1000.0,-687.98828125,-1000.0
-338.37890625,-836.9140625,-853.02734375,-516.6015625
-854.98046875,725.5859375,-566.40625,-931.15234375
701.171875,867.67578125,-457.51953125,801.26953125
-950.68359375,-660.64453125,-676.7578125,-808.59375
-784.66796875,-1000.0,-792.96875,-1000.0
768.06640625,62.98828125,-665.52734375,473.14453125
-847.16796875,-817.87109375,-527.34375,-795.8984375
-114.2578125,49.8046875,-617.67578125,35.15625
-1000.0,-1000.0,-756.34765625,-1000.0
77.1484375,-226.5625,-684.5703125,-117.1875
-753.90625,-808.10546875,-542.48046875,-771.484375
195.80078125,256.8359375,-553.7109375,213.8671875
-1000.0,-1000.0,-731.4453125,-1000.0
-274.90234375,-485.83984375,-739.2578125,-274.4140625
-802.734375,-926.26953125,-609.86328125,-815.91796875
419.43359375,574.21875,-523.92578125,530.2734375
-1000.0,-974.609375,-697.265625,-1000.0
-437.5,-931.640625,-829.1015625,-618.1640625
-941.89453125,544.43359375,-660.64453125,939.94140625
900.87890625,-951.66015625,-427.734375,-965.33203125
-649.90234375,-355.46875,-485.3515625,-395.5078125
-945.80078125,-1000.0,-739.74609375,-1000.0
593.26171875,-40.52734375,-723.14453125,248.53515625
-804.19921875,-804.19921875,-513.671875,-762.6953125
8.30078125,131.34765625,-448.2421875,163.57421875
-1000.0,-1000.0,-712.40234375,-1000.0
-56.15234375,-274.4140625,-807.12890625,-247.0703125
-762.6953125,-817.87109375,-530.2734375,-792.48046875
207.03125,306.640625,-444.3359375,228.515625
-1000.0,-1000.0,-734.375,-1000.0
-275.87890625,-585.9375,-839.35546875,-299.8046875
-813.4765625,982.421875,-583.984375,-837.40234375
520.5078125,701.66015625,-365.72265625,618.65234375
-1000.0,-845.21484375,-615.234375,-1000.0
-542.96875,-1000.0,-844.23828125,-732.91015625
980.95703125,382.32421875,-616.2109375,819.82421875
-973.6328125,-876.46484375,-276.3671875,-873.53515625
-426.26953125,-193.359375,-490.72265625,-208.49609375
-1000.0,-1000.0,-833.0078125,-1000.0
401.3671875,-124.0234375,-677.734375,113.76953125
-772.94921875,-803.7109375,-478.515625,-756.34765625
131.8359375,187.5,-574.70703125,194.82421875
-1000.0,-1000.0,-796.875,-1000.0
-187.5,-340.33203125,-756.8359375,-271.484375
-778.80859375,-840.33203125,-525.390625,-796.875
219.23828125,374.0234375,-454.1015625,334.47265625
-1000.0,-1000.0,-710.44921875,-1000.0
-273.4375,-721.19140625,-743.1640625,-381.34765625
-827.63671875,834.9609375,-552.24609375,-894.04296875
614.2578125,839.35546875,-475.09765625,779.296875
-1000.0,-685.546875,-625.9765625,-813.96484375
-643.5546875,-1000.0,-769.04296875,-890.13671875
904.296875,222.65625,-648.4375,654.296875
-888.18359375,-829.58984375,-544.921875,-826.66015625
-225.09765625,-50.29296875,-603.02734375,-86.42578125
-1000.0,-1000.0,-783.203125,-1000.0
205.56640625,-180.6640625,-719.23828125,-3.90625
-753.90625,-804.19921875,-534.66796875,-761.71875
187.98828125,219.23828125,-518.06640625,204.1015625
-1000.0,-1000.0,-707.51953125,-1000.0
-275.390625,-406.73828125,-802.24609375,-278.3203125
-781.25,-864.74609375,-606.4453125,-790.52734375
275.390625,440.91796875,-512.20703125,399.4140625
-1000.0,-1000.0,-711.42578125,-1000.0
-156.25,-756.34765625,-796.875,-324.70703125
-896.484375,679.6875,-624.0234375,-992.67578125
765.13671875,955.56640625,-392.08984375,916.9921875
-845.703125,-511.23046875,-550.78125,-594.7265625
-798.33984375,-1000.0,-814.94140625,-1000.0
765.625,69.3359375,-708.0078125,440.4296875
-843.75,-812.5,-329.1015625,-785.64453125
-101.07421875,49.8046875,-365.72265625,46.38671875
-1000.0,-1000.0,-841.796875,-1000.0
56.640625,-226.07421875,-765.13671875,-131.8359375
-754.8828125,-808.10546875,-416.015625,-773.92578125
197.265625,260.7421875,-454.58984375,215.8203125
-1000.0,-1000.0,-811.5234375,-1000.0
-274.90234375,-488.76953125,-781.25,-274.4140625
-803.22265625,-929.19921875,-563.96484375,-815.91796875
423.828125,580.078125,-518.5546875,530.2734375
-1000.0,-962.40234375,-686.03515625,-1000.0
-441.40625,-952.1484375,-764.6484375,-603.02734375
-947.265625,514.16015625,-526.3671875,945.80078125
913.0859375,-943.359375,-423.828125,-959.9609375
-630.37109375,-344.7265625,-652.83203125,-375.9765625
-954.1015625,-1000.0,-799.8046875,-1000.0
583.0078125,-45.41015625,-663.57421875,240.234375
-801.26953125,-803.22265625,-531.73828125,-761.71875
21.484375,140.625,-590.8203125,164.55078125
-1000.0,-1000.0,-795.8984375,-1000.0
-43.9453125,-260.25390625,-773.4375,-230.95703125
-818.84765625,-875.0,-560.05859375,-849.609375
118.65234375,219.7265625,-511.71875,141.11328125
-1000.0,-1000.0,-671.875,-1000.0
-275.87890625,-602.5390625,-735.3515625,-302.24609375
-816.40625,964.84375,-591.30859375,-845.21484375
520.99609375,710.44921875,-485.83984375,635.7421875
-1000.0,-837.890625,-619.140625,-996.58203125
-548.33984375,-1000.0,-774.90234375,-752.44140625
976.5625,376.46484375,-695.80078125,798.33984375
-968.26171875,-879.39453125,-460.9375,-864.2578125
-417.96875,-201.171875,-558.10546875,-186.5234375
-1000.0,-1000.0,-831.54296875,-1000.0
397.4609375,-124.0234375,-751.953125,105.95703125
-771.97265625,-804.19921875,-405.2734375,-755.37109375
137.6953125,183.59375,-361.81640625,194.82421875
-1000.0,-1000.0,-772.4609375,-1000.0
-186.5234375,-335.9375,-814.94140625,-271.484375
-777.34375,-839.35546875,-527.83203125,-798.33984375
218.75,389.6484375,-470.21484375,336.42578125
-1000.0,-1000.0,-730.46875,-1000.0
-272.94921875,-710.9375,-824.70703125,-414.55078125
-829.1015625,845.703125,-543.45703125,-910.64453125
621.58203125,846.19140625,-379.39453125,792.96875
-1000.0,-666.015625,-664.55078125,-799.31640625
-654.296875,-1000.0,-825.68359375,-909.66796875
899.90234375,200.68359375,-653.3203125,627.44140625
-888.671875,-833.984375,-396.97265625,-820.3125
-221.19140625,-60.546875,-518.06640625,-75.1953125
-1000.0,-1000.0,-841.30859375,-1000.0
173.33984375,-189.94140625,-656.25,-4.39453125
-753.41796875,-807.12890625,-409.1796875,-760.7421875
189.453125,222.16796875,-562.98828125,203.61328125
-1000.0,-1000.0,-785.15625,-1000.0
-271.484375,-410.64453125,-756.8359375,-274.4140625
-795.8984375,-876.46484375,-543.45703125,-806.15234375
321.77734375,481.4453125,-474.12109375,438.96484375
-1000.0,-1000.0,-683.59375,-1000.0
-341.30859375,-833.49609375,-768.06640625,-511.23046875
-882.32421875,687.01171875,-631.8359375,-981.93359375
779.78515625,968.75,-510.7421875,932.6171875
-832.03125,-494.140625,-605.95703125,-579.58984375
-810.05859375,-1000.0,-749.0234375,-1000.0
755.37109375,66.89453125,-713.37890625,434.08203125
-840.8203125,-809.5703125,-519.53125,-783.69140625
-98.14453125,59.5703125,-585.9375,52.734375
-1000.0,-1000.0,-823.2421875,-1000.0
52.734375,-228.515625,-766.11328125,-130.37109375
-755.37109375,-808.10546875,-547.8515625,-772.94921875
197.75390625,260.7421875,-506.8359375,214.84375
-1000.0,-1000.0,-733.3984375,-1000.0
-274.90234375,-497.55859375,-777.83203125,-274.4140625
-803.7109375,-933.10546875,-579.58984375,-818.359375
424.31640625,571.77734375,-282.71484375,548.33984375
-1000.0,-972.16796875,-497.55859375,-1000.0
-453.125,-947.75390625,-852.05078125,-629.8828125
-951.171875,521.484375,-664.0625,929.6875
911.1328125,-954.1015625,-304.19921875,-948.73046875
-634.765625,-358.3984375,-457.51953125,-361.81640625
-958.0078125,-1000.0,-873.046875,-1000.0
576.66015625,-50.78125,-694.3359375,252.9296875
-800.78125,-805.17578125,-422.8515625,-817.3828125
20.99609375,137.6953125,-509.27734375,80.56640625
-1000.0,-1000.0,-820.3125,-1000.0
-68.84765625,-279.296875,-745.60546875,-250.9765625
-763.671875,-819.3359375,-398.92578125,-795.41015625
208.0078125,319.3359375,-441.40625,229.00390625
-1000.0,-1000.0,-774.90234375,-1000.0
-275.87890625,-605.46875,-786.1328125,-297.36328125
-814.94140625,962.890625,-577.1484375,-843.75
529.296875,725.09765625,-517.578125,645.99609375
-1000.0,-820.80078125,-673.33984375,-981.93359375
-556.640625,-1000.0,-814.94140625,-763.671875
972.65625,367.1875,-682.12890625,788.57421875
-966.30859375,-877.44140625,-450.68359375,-861.81640625
-403.80859375,-193.84765625,-562.5,-187.01171875
-1000.0,-1000.0,-754.8828125,-1000.0
356.93359375,-137.6953125,-663.57421875,114.2578125
-768.5546875,-805.6640625,-549.31640625,-754.8828125
144.53125,191.89453125,-573.2421875,194.3359375
-1000.0,-1000.0,-767.08984375,-1000.0
-196.77734375,-342.7734375,-760.25390625,-271.484375
-779.78515625,-841.796875,-583.0078125,-798.828125
220.21484375,388.671875,-534.66796875,336.42578125
-1000.0,-1000.0,-721.6796875,-1000.0
-272.4609375,-717.7734375,-817.87109375,-415.52734375
-830.078125,840.8203125,-611.81640625,-919.921875
625.9765625,839.84375,-380.37109375,821.2890625
-1000.0,-677.24609375,-529.78515625,-758.7890625
-657.2265625,-1000.0,-837.40234375,-926.7578125
895.99609375,199.21875,-710.44921875,612.3046875
-884.27734375,-829.1015625,-425.29296875,-817.3828125
-208.984375,-44.921875,-536.1328125,-68.84765625
-1000.0,-1000.0,-835.44921875,-1000.0
175.78125,-186.03515625,-750.48828125,-17.578125
-752.9296875,-804.6875,-465.33203125,-762.20703125
188.96484375,223.14453125,-477.05078125,205.078125
-1000.0,-1000.0,-753.90625,-1000.0
-271.484375,-410.64453125,-794.921875,-274.4140625
-796.38671875,-875.9765625,-420.41015625,-806.640625
323.73046875,480.95703125,-244.62890625,445.80078125
-1000.0,-1000.0,-687.01171875,-1000.0
-350.09765625,-846.19140625,-858.88671875,-522.4609375
-886.71875,671.38671875,-492.67578125,-989.2578125
786.62109375,970.703125,-302.734375,942.3828125
-824.70703125,-489.2578125,-661.62109375,-571.2890625
-812.98828125,-1000.0,-834.47265625,-1000.0
751.46484375,45.41015625,-671.38671875,441.89453125
-838.8671875,-810.546875,-519.04296875,-783.203125
-85.9375,68.359375,-608.3984375,55.17578125
-1000.0,-1000.0,-753.90625,-1000.0
38.0859375,-238.76953125,-667.96875,-123.53515625
-756.8359375,-810.05859375,-498.53515625,-770.99609375
199.21875,269.04296875,-540.52734375,213.8671875
-1000.0,-1000.0,-745.60546875,-1000.0
-274.90234375,-494.62890625,-748.046875,-274.4140625
-803.7109375,-934.5703125,-603.02734375,-818.84765625
434.08203125,597.16796875,-518.5546875,547.8515625
-1000.0,-950.68359375,-694.82421875,-1000.0
-451.171875,-949.70703125,-826.171875,-625.9765625
-953.61328125,521.97265625,-676.7578125,926.7578125
923.33984375,-942.3828125,-471.19140625,-937.5
-611.328125,-336.9140625,-566.89453125,-340.33203125
-969.7265625,-1000.0,-798.33984375,-1000.0
562.01171875,-57.12890625,-706.54296875,226.07421875
-798.828125,-805.17578125,-511.71875,-758.7890625
26.85546875,139.16015625,-451.66015625,187.5
-1000.0,-1000.0,-674.8046875,-1000.0
-80.078125,-284.1796875,-794.43359375,-257.8125
-765.625,-820.80078125,-553.22265625,-793.9453125
208.984375,314.453125,-376.953125,230.46875
-1000.0,-1000.0,-671.38671875,-1000.0
-275.390625,-598.14453125,-853.515625,-314.94140625
-815.91796875,967.28515625,-594.23828125,-854.00390625
538.0859375,726.07421875,-384.27734375,665.0390625
-1000.0,-815.4296875,-608.3984375,-964.84375
-559.5703125,-1000.0,-858.88671875,-770.5078125
968.26171875,354.98046875,-634.27734375,784.66796875
-956.0546875,-869.62890625,-306.640625,-860.83984375
-388.18359375,-177.24609375,-546.875,-182.6171875
-1000.0,-1000.0,-842.28515625,-1000.0
365.234375,-134.27734375,-719.7265625,103.02734375
-768.5546875,-804.6875,-489.2578125,-755.37109375
150.87890625,192.87109375,-524.90234375,194.82421875
-1000.0,-1000.0,-793.45703125,-1000.0
-204.1015625,-351.07421875,-749.51171875,-271.484375
-780.76171875,-845.703125,-505.859375,-798.33984375
220.703125,397.4609375,-432.12890625,339.35546875
-1000.0,-1000.0,-712.890625,-1000.0
-270.99609375,-735.83984375,-748.53515625,-411.1328125
-835.44921875,817.3828125,-556.640625,-915.0390625
647.94921875,867.1875,-538.57421875,813.96484375
-1000.0,-646.484375,-667.48046875,-766.6015625
-662.109375,-1000.0,-803.7109375,-927.24609375
896.484375,199.70703125,-703.61328125,608.88671875
-884.27734375,-827.63671875,-513.671875,-816.40625
-201.66015625,-39.55078125,-577.1484375,-65.4296875
-1000.0,-1000.0,-786.62109375,-1000.0
159.1796875,-190.91796875,-721.6796875,-20.01953125
-753.41796875,-805.6640625,-474.609375,-762.20703125
190.4296875,222.65625,-441.89453125,205.078125
-1000.0,-1000.0,-687.5,-1000.0
-271.484375,-414.0625,-793.45703125,-274.90234375
-796.38671875,-876.953125,-609.86328125,-808.59375
323.2421875,475.09765625,-426.26953125,467.28515625
-1000.0,-1000.0,-635.25390625,-1000.0
-349.12109375,-839.35546875,-853.515625,-527.34375
-890.625,675.29296875,-645.01953125,-990.72265625
800.29296875,976.5625,-440.91796875,950.1953125
-807.12890625,-480.46875,-610.3515625,-556.640625
-817.3828125,-1000.0,-809.08203125,-1000.0
750.0,51.7578125,-709.9609375,433.59375
-838.37890625,-812.01171875,-324.21875,-782.71484375
-86.9140625,58.10546875,-339.84375,60.546875
-1000.0,-1000.0,-826.66015625,-1000.0
42.48046875,-231.4453125,-791.50390625,-143.06640625
-755.859375,-809.08203125,-354.98046875,-775.390625
198.73046875,266.11328125,-341.30859375,216.30859375
-1000.0,-1000.0,-813.96484375,-1000.0
-275.390625,-506.34765625,-790.52734375,-273.92578125
-804.19921875,-935.546875,-578.125,-818.84765625
434.5703125,580.56640625,-519.53125,552.734375
-1000.0,-976.5625,-691.40625,-1000.0
-453.125,-955.56640625,-774.4140625,-625.9765625
-956.54296875,502.9296875,-564.94140625,928.22265625
930.6640625,-933.10546875,-497.55859375,-938.96484375
-598.14453125,-320.80078125,-650.87890625,-339.35546875
-974.609375,-1000.0,-818.359375,-1000.0
556.15234375,-59.08203125,-697.265625,219.7265625
-797.36328125,-804.19921875,-488.76953125,-759.27734375
30.76171875,144.53125,-574.21875,175.78125
-1000.0,-1000.0,-780.76171875,-1000.0
-83.984375,-287.109375,-747.55859375,-256.34765625
-765.625,-821.2890625,-542.48046875,-794.921875
209.47265625,317.87109375,-481.4453125,231.4453125
-1000.0,-1000.0,-666.50390625,-1000.0
-275.390625,-600.09765625,-744.140625,-319.82421875
-816.40625,964.84375,-632.32421875,-855.46875
541.9921875,733.3984375,-507.8125,663.0859375
-1000.0,-810.05859375,-658.69140625,-966.30859375
-558.59375,-1000.0,-834.47265625,-774.90234375
967.7734375,364.2578125,-698.2421875,777.34375
-952.63671875,-871.09375,-462.40234375,-857.91015625
-379.8828125,-180.6640625,-553.7109375,-174.8046875
-1000.0,-1000.0,-813.96484375,-1000.0
363.76953125,-131.34765625,-745.1171875,99.12109375
-768.5546875,-804.6875,-444.82421875,-755.37109375
151.3671875,187.5,-338.8671875,195.3125
-1000.0,-1000.0,-701.171875,-1000.0
-208.984375,-343.26171875,-824.70703125,-271.484375
-782.2265625,-842.7734375,-481.4453125,-799.31640625
221.6796875,396.97265625,-393.5546875,336.9140625
-1000.0,-1000.0,-745.1171875,-1000.0
-270.99609375,-723.6328125,-825.68359375,-425.78125
-834.9609375,824.21875,-582.03125,-925.78125
646.97265625,881.8359375,-456.54296875,831.0546875
-1000.0,-697.265625,-689.453125,-799.31640625
-662.109375,-1000.0,-809.08203125,-830.078125
896.484375,443.359375,-602.5390625,770.5078125
-884.765625,-849.609375,-394.04296875,-833.0078125
-201.171875,-48.828125,-508.30078125,-62.5
-1000.0,-1000.0,-817.3828125,-1000.0
152.34375,-194.3359375,-650.390625,-22.4609375
-753.90625,-807.12890625,-390.625,-762.20703125
190.91796875,225.5859375,-550.78125,205.56640625
-1000.0,-1000.0,-786.62109375,-1000.0
-271.97265625,-424.31640625,-742.1875,-274.4140625
-795.8984375,-883.30078125,-580.078125,-807.12890625
330.56640625,490.72265625,-553.7109375,457.03125
-1000.0,-1000.0,-716.30859375,-1000.0
-347.65625,-842.28515625,-782.2265625,-512.20703125
-888.671875,675.29296875,-633.30078125,-984.375
798.33984375,976.07421875,-532.71484375,946.77734375
-808.59375,-482.91015625,-604.4921875,-553.7109375
-816.89453125,-1000.0,-728.515625,-1000.0
750.0,58.10546875,-717.7734375,422.36328125
-838.37890625,-809.08203125,-532.2265625,-781.73828125
-85.44921875,68.359375,-546.875,60.05859375
-1000.0,-1000.0,-770.01953125,-1000.0
39.55078125,-232.91015625,-777.34375,-143.06640625
-756.34765625,-809.08203125,-544.921875,-775.390625
198.73046875,263.18359375,-522.4609375,216.796875
-1000.0,-1000.0,-750.0,-1000.0
-275.390625,-509.27734375,-778.3203125,-273.92578125
-804.19921875,-943.359375,-596.6796875,-819.82421875
434.08203125,586.42578125,-314.94140625,559.5703125
-1000.0,-963.37890625,-512.6953125,-1000.0
-453.125,-947.265625,-866.2109375,-635.25390625
-956.0546875,520.99609375,-690.91796875,924.8046875
929.19921875,-942.87109375,-287.59765625,-940.4296875
-606.4453125,-338.37890625,-428.7109375,-346.19140625
-960.44921875,-1000.0,-878.90625,-1000.0
576.171875,-50.78125,-712.890625,222.65625
-799.31640625,-803.7109375,-428.22265625,-759.27734375
32.71484375,142.08984375,-502.44140625,174.8046875
-1000.0,-1000.0,-794.921875,-1000.0
-81.0546875,-285.64453125,-717.7734375,-255.859375
-765.13671875,-821.2890625,-408.69140625,-794.43359375
208.984375,323.73046875,-475.5859375,230.46875
-1000.0,-1000.0,-765.13671875,-1000.0
-275.390625,-611.81640625,-802.24609375,-308.59375
-815.91796875,959.47265625,-624.0234375,-850.09765625
538.0859375,726.5625,-509.27734375,657.71484375
-1000.0,-814.94140625,-672.36328125,-972.16796875
-560.05859375,-1000.0,-799.31640625,-764.6484375
968.26171875,345.21484375,-650.390625,788.57421875
-956.0546875,-874.0234375,-420.41015625,-859.86328125
-390.625,-187.98828125,-545.8984375,-183.59375
-1000.0,-1000.0,-754.39453125,-1000.0
372.55859375,-139.16015625,-660.64453125,119.140625
-769.04296875,-805.6640625,-548.33984375,-754.39453125
150.87890625,191.89453125,-571.77734375,193.359375
-1000.0,-1000.0,-730.46875,-1000.0
-202.1484375,-343.26171875,-729.4921875,-271.484375
-780.76171875,-842.28515625,-601.07421875,-798.828125
220.21484375,394.53125,-521.484375,336.42578125
-1000.0,-1000.0,-714.35546875,-1000.0
-271.484375,-720.703125,-818.359375,-418.45703125
-833.49609375,835.9375,-602.5390625,-923.33984375
639.6484375,847.65625,-340.8203125,830.56640625
-1000.0,-668.45703125,-492.1875,-750.48828125
-657.2265625,-1000.0,-833.984375,-922.36328125
897.94921875,203.61328125,-740.234375,619.140625
-884.27734375,-832.51953125,-399.4140625,-817.87109375
-204.1015625,-51.7578125,-463.37890625,-63.96484375
-1000.0,-1000.0,-843.75,-1000.0
168.9453125,-187.01171875,-765.13671875,-24.90234375
-752.44140625,-805.6640625,-487.3046875,-763.18359375
189.453125,223.6328125,-510.25390625,205.56640625
-1000.0,-1000.0,-775.390625,-1000.0
-271.484375,-416.50390625,-780.2734375,-274.4140625
-795.8984375,-878.90625,-410.15625,-807.12890625
324.70703125,483.88671875,-259.765625,452.63671875
-1000.0,-1000.0,-694.3359375,-1000.0
-347.16796875,-842.28515625,-859.375,-521.97265625
-887.6953125,673.33984375,-490.72265625,-986.81640625
793.45703125,978.515625,-305.6640625,939.453125
-815.4296875,-478.515625,-669.43359375,-570.80078125
-813.96484375,-1000.0,-836.42578125,-1000.0
752.44140625,50.78125,-674.8046875,430.17578125
-839.35546875,-810.05859375,-517.578125,-781.73828125
-88.8671875,67.87109375,-607.91015625,54.6875
-1000.0,-1000.0,-766.6015625,-1000.0
39.55078125,-238.28125,-681.15234375,-119.62890625
-756.34765625,-810.05859375,-511.71875,-770.5078125
198.73046875,265.625,-529.296875,213.37890625
-1000.0,-1000.0,-765.13671875,-1000.0
-275.390625,-496.58203125,-791.50390625,-274.4140625
