"eeg0","eeg1","eeg2","eeg3"
-0.48828125,0.0,0.0,-0.48828125
-0.48828125,-6.8359375,-14.16015625,-0.48828125
30.76171875,12.20703125,41.9921875,30.76171875
-67.87109375,15.13671875,-55.6640625,-59.5703125
321.2890625,-258.30078125,60.546875,312.5
-872.55859375,361.328125,839.35546875,-864.74609375
254.8828125,-82.03125,986.81640625,420.41015625
-1000.0,-1000.0,890.625,-1000.0
-634.765625,-1000.0,931.15234375,-433.59375
-971.6796875,-54.6875,916.9921875,-934.5703125
435.546875,180.6640625,916.015625,884.27734375
-1000.0,-1000.0,898.4375,-678.7109375
-1000.0,-1000.0,873.046875,-931.640625
255.37109375,-228.515625,868.65234375,606.4453125
-988.76953125,521.97265625,866.2109375,-800.29296875
-519.53125,-752.9296875,858.3984375,-6.8359375
-1000.0,-1000.0,813.96484375,-1000.0
-111.81640625,-525.87890625,782.2265625,22.94921875
-848.14453125,798.33984375,817.87109375,-774.4140625
136.23046875,-93.26171875,780.2734375,208.49609375
-1000.0,-1000.0,642.578125,-1000.0
-248.046875,-906.73828125,534.1796875,-275.390625
-817.3828125,539.55078125,583.49609375,-813.4765625
237.79296875,266.11328125,676.7578125,529.78515625
-1000.0,-1000.0,594.7265625,-1000.0
-731.93359375,-1000.0,178.7109375,-542.48046875
916.50390625,63.96484375,105.46875,990.72265625
611.328125,490.234375,405.76171875,-988.28125
-956.0546875,-933.59375,373.53515625,-484.86328125
-1000.0,-1000.0,14.6484375,-1000.0
206.0546875,-148.4375,-206.54296875,493.1640625
-913.0859375,721.6796875,35.15625,-784.66796875
-310.546875,-541.015625,39.55078125,134.765625
-1000.0,-1000.0,-262.20703125,-1000.0
-213.8671875,-651.85546875,-510.7421875,-183.10546875
-836.42578125,720.703125,-395.99609375,-776.85546875
213.37890625,8.30078125,-244.62890625,219.23828125
-1000.0,-1000.0,-392.578125,-1000.0
-423.33984375,-1000.0,-600.5859375,-272.94921875
-871.58203125,351.5625,-524.4140625,-827.1484375
289.55078125,325.68359375,-367.1875,618.1640625
-1000.0,-1000.0,-385.7421875,-1000.0
-883.7890625,-1000.0,-523.4375,-639.6484375
701.66015625,-14.6484375,-510.7421875,910.64453125
772.94921875,619.140625,-446.2890625,-893.06640625
-797.36328125,-763.671875,-522.94921875,-230.46875
-1000.0,-1000.0,-668.45703125,-1000.0
1.953125,-285.64453125,-696.2890625,183.10546875
-841.796875,874.0234375,-562.98828125,-754.39453125
-122.55859375,-315.4296875,-521.484375,191.40625
-1000.0,-1000.0,-630.37109375,-1000.0
-205.078125,-738.28125,-732.91015625,-253.41796875
-886.71875,599.609375,-591.30859375,-851.5625
158.203125,16.11328125,-492.67578125,244.62890625
-1000.0,-1000.0,-579.58984375,-1000.0
-548.33984375,-1000.0,-714.35546875,-347.16796875
-925.78125,190.91796875,-651.85546875,-887.20703125
388.18359375,360.83984375,-577.1484375,787.59765625
-1000.0,-965.8203125,-604.4921875,-807.6171875
-1000.0,-1000.0,-687.5,-854.98046875
480.46875,-82.03125,-715.33203125,702.1484375
924.31640625,698.2421875,-519.53125,-832.03125
-620.1171875,-653.3203125,-423.828125,-86.9140625
-1000.0,-1000.0,-663.57421875,-1000.0
-111.81640625,-358.88671875,-744.140625,20.01953125
-825.68359375,958.984375,-563.4765625,-758.30078125
61.5234375,-75.68359375,-546.875,201.171875
-1000.0,-1000.0,-681.640625,-1000.0
-239.74609375,-808.59375,-754.39453125,-274.90234375
-820.80078125,683.59375,-626.953125,-804.19921875
244.140625,244.140625,-583.0078125,435.546875
-1000.0,-1000.0,-663.57421875,-1000.0
-626.46484375,-1000.0,-750.0,-473.6328125
-972.65625,149.4140625,-678.7109375,-963.37890625
515.13671875,470.703125,-591.796875,927.734375
-990.234375,-927.734375,-634.765625,-590.8203125
-1000.0,-1000.0,-723.14453125,-1000.0
245.1171875,-152.34375,-686.5234375,487.79296875
-949.21875,792.96875,-552.24609375,-786.62109375
-424.31640625,-529.296875,-573.2421875,48.33984375
-1000.0,-1000.0,-648.92578125,-1000.0
-210.44921875,-508.30078125,-658.203125,-81.54296875
-837.40234375,887.20703125,-605.46875,-763.18359375
180.17578125,18.06640625,-596.6796875,208.984375
-1000.0,-1000.0,-676.26953125,-1000.0
-323.73046875,-934.08203125,-776.3671875,-282.2265625
-820.3125,515.13671875,-662.59765625,-793.9453125
207.03125,305.17578125,-604.00390625,488.28125
-1000.0,-1000.0,-654.296875,-941.40625
-569.3359375,-1000.0,-707.51953125,-298.33984375
861.81640625,52.734375,-665.0390625,933.59375
623.53515625,534.1796875,-603.515625,-949.70703125
-919.43359375,-861.81640625,-629.8828125,-331.54296875
-1000.0,-1000.0,-726.07421875,-1000.0
85.9375,-229.98046875,-721.6796875,262.6953125
-867.1875,833.984375,-583.0078125,-760.7421875
-236.81640625,-422.36328125,-591.30859375,167.96875
-1000.0,-1000.0,-695.80078125,-1000.0
-217.7734375,-647.4609375,-754.39453125,-227.05078125
-832.51953125,779.296875,-632.8125,-785.15625
244.62890625,85.44921875,-452.1484375,228.02734375
-1000.0,-1000.0,-521.97265625,-1000.0
-445.80078125,-1000.0,-757.32421875,-269.53125
-875.0,349.609375,-654.78515625,-838.37890625
326.171875,371.58203125,-596.19140625,661.62109375
-1000.0,-1000.0,-663.57421875,-965.33203125
-908.69140625,-1000.0,-762.20703125,-743.1640625
661.1328125,-18.5546875,-713.37890625,815.4296875
821.77734375,667.48046875,-595.21484375,-864.74609375
-742.1875,-728.02734375,-610.83984375,-177.734375
-1000.0,-1000.0,-710.44921875,-1000.0
-21.97265625,-293.45703125,-749.51171875,112.3046875
-828.125,929.6875,-616.2109375,-754.8828125
-50.78125,-222.65625,-561.5234375,194.3359375
-1000.0,-1000.0,-657.71484375,-1000.0
-229.98046875,-740.72265625,-763.671875,-272.4609375
-825.1953125,741.2109375,-642.08984375,-796.38671875
245.60546875,196.2890625,-591.796875,348.6328125
-1000.0,-1000.0,-676.7578125,-1000.0
-541.015625,-1000.0,-676.7578125,-357.421875
-921.875,234.375,-582.51953125,-896.484375
471.6796875,465.33203125,-595.703125,821.77734375
-1000.0,-964.84375,-642.08984375,-751.46484375
-1000.0,-1000.0,-751.46484375,-898.92578125
479.00390625,-77.1484375,-699.70703125,648.92578125
-997.55859375,802.734375,-554.6875,-818.359375
-496.09375,-557.12890625,-570.80078125,-52.734375
-1000.0,-1000.0,-665.52734375,-1000.0
-134.27734375,-378.41796875,-735.83984375,-3.41796875
-825.68359375,970.703125,-623.53515625,-758.7890625
84.47265625,-53.7109375,-597.65625,203.125
-1000.0,-1000.0,-697.75390625,-1000.0
-241.69921875,-859.375,-774.90234375,-275.390625
-820.3125,612.3046875,-657.71484375,-809.08203125
243.1640625,254.39453125,-593.26171875,486.328125
-1000.0,-1000.0,-662.109375,-1000.0
-668.9453125,-1000.0,-740.72265625,-502.44140625
998.046875,191.40625,-669.43359375,-984.86328125
537.59765625,461.9140625,-480.95703125,974.609375
-982.91015625,-935.05859375,-492.1875,-517.08984375
-1000.0,-1000.0,-738.28125,-1000.0
191.89453125,-172.36328125,-735.83984375,458.0078125
-892.08984375,838.8671875,-617.1875,-781.25
-314.453125,-460.44921875,-616.2109375,72.265625
-1000.0,-1000.0,-719.7265625,-1000.0
-214.35546875,-512.20703125,-764.6484375,-124.0234375
-832.03125,907.2265625,-631.8359375,-769.53125
210.9375,48.828125,-601.07421875,213.37890625
-1000.0,-1000.0,-674.31640625,-1000.0
-341.30859375,-959.9609375,-736.328125,-274.4140625
-840.33203125,479.4921875,-626.953125,-823.2421875
246.58203125,322.265625,-568.359375,587.890625
-1000.0,-1000.0,-649.4140625,-1000.0
-787.109375,-1000.0,-752.9296875,-622.55859375
708.984375,-44.921875,-692.3828125,926.7578125
554.19921875,450.1953125,-565.4296875,-915.0390625
390.625,429.19921875,-589.35546875,-307.12890625
-1000.0,-1000.0,-653.80859375,-1000.0
-940.91796875,-1000.0,-730.46875,270.01953125
612.79296875,-29.78515625,-689.453125,-759.765625
889.6484375,720.703125,-597.65625,186.03515625
-654.78515625,-670.41015625,-587.890625,-1000.0
-1000.0,-1000.0,-709.47265625,-256.34765625
-56.640625,-321.2890625,-766.11328125,-791.9921875
-827.63671875,940.4296875,-589.35546875,282.2265625
-17.08984375,-175.78125,-484.86328125,-1000.0
-1000.0,-1000.0,-648.4375,-325.68359375
-232.421875,-759.765625,-808.59375,-866.69921875
-824.21875,729.00390625,-592.28515625,-801.7578125
245.1171875,207.03125,-428.7109375,408.203125
-1000.0,-1000.0,-632.8125,-1000.0
-561.5234375,-1000.0,-801.26953125,-455.56640625
-933.10546875,223.6328125,-620.1171875,-900.87890625
490.72265625,458.49609375,-437.01171875,774.90234375
-1000.0,-968.26171875,-581.54296875,-862.3046875
-1000.0,-1000.0,-762.20703125,-923.33984375
369.62890625,-111.81640625,-660.15625,601.5625
-972.16796875,812.01171875,-538.0859375,-813.4765625
-458.49609375,-531.25,-632.32421875,-28.80859375
-1000.0,-1000.0,-730.46875,-1000.0
-185.546875,-444.3359375,-689.94140625,-25.390625
-836.42578125,928.7109375,-552.734375,-760.25390625
111.328125,-23.92578125,-624.51171875,204.58984375
-1000.0,-1000.0,-706.0546875,-1000.0
-265.625,-907.71484375,-699.21875,-275.87890625
-826.171875,549.8046875,-585.9375,-812.5
242.1875,272.94921875,-603.515625,520.5078125
-1000.0,-1000.0,-648.92578125,-1000.0
-718.75,-1000.0,-694.82421875,-525.87890625
930.17578125,92.28515625,-652.34375,-998.53515625
606.93359375,537.59765625,-617.1875,995.1171875
-949.21875,-885.25390625,-606.93359375,-464.35546875
-1000.0,-1000.0,-660.64453125,-1000.0
174.31640625,-179.6875,-745.60546875,370.60546875
-850.5859375,915.0390625,-647.94921875,-772.4609375
-229.98046875,-350.09765625,-576.171875,106.93359375
-1000.0,-1000.0,-646.97265625,-1000.0
-219.23828125,-496.58203125,-762.20703125,-167.48046875
-826.171875,971.19140625,-627.44140625,-776.3671875
239.74609375,138.671875,-532.2265625,218.26171875
-1000.0,-1000.0,-618.65234375,-1000.0
-335.44921875,-934.5703125,-792.48046875,-273.4375
-831.54296875,556.640625,-694.82421875,-826.171875
310.546875,383.7890625,-513.18359375,608.88671875
-1000.0,-1000.0,-562.98828125,-1000.0
-819.3359375,-1000.0,-775.390625,-647.4609375
796.875,35.64453125,-741.69921875,904.78515625
762.20703125,641.6015625,-483.88671875,-893.06640625
-799.8046875,-773.4375,-512.20703125,-233.88671875
-1000.0,-1000.0,-762.6953125,-1000.0
46.875,-251.953125,-741.69921875,169.43359375
-832.03125,915.52734375,-493.1640625,-754.39453125
-121.09375,-287.109375,-514.16015625,190.4296875
-1000.0,-1000.0,-764.6484375,-1000.0
-224.609375,-678.22265625,-752.9296875,-270.5078125
-827.63671875,802.734375,-534.1796875,-795.41015625
245.1171875,176.7578125,-568.359375,306.15234375
-1000.0,-1000.0,-733.88671875,-1000.0
-490.234375,-1000.0,-735.83984375,-338.37890625
-895.01953125,313.4765625,-573.73046875,-873.53515625
425.78125,451.171875,-574.21875,747.55859375
-1000.0,-984.375,-665.0390625,-875.48828125
-971.6796875,-1000.0,-698.73046875,-792.48046875
554.6875,-50.78125,-658.69140625,768.5546875
936.5234375,786.1328125,-635.7421875,-844.7265625
-594.7265625,-590.33203125,-643.5546875,-110.3515625
-1000.0,-1000.0,-666.015625,-1000.0
-77.1484375,-329.58984375,-699.70703125,66.89453125
-824.70703125,967.7734375,-662.109375,-754.39453125
13.671875,-120.1171875,-631.8359375,197.265625
-1000.0,-1000.0,-630.37109375,-1000.0
-239.2578125,-813.96484375,-710.44921875,-278.80859375
-809.08203125,664.55078125,-678.22265625,-788.0859375
208.0078125,217.28515625,-582.03125,389.16015625
-1000.0,-1000.0,-587.40234375,-1000.0
-432.6171875,-1000.0,-699.21875,-263.671875
-984.86328125,164.55078125,-719.23828125,-965.33203125
524.90234375,498.046875,-592.7734375,908.69140625
-999.51171875,-934.08203125,-549.8046875,-623.046875
-1000.0,-1000.0,-719.23828125,-968.75
321.77734375,-118.65234375,-768.06640625,558.10546875
-896.484375,889.6484375,-569.3359375,-796.38671875
-333.984375,-430.6640625,-523.4375,38.57421875
-1000.0,-1000.0,-741.2109375,-1000.0
-173.33984375,-393.06640625,-797.8515625,-74.21875
-818.84765625,-988.28125,-549.31640625,-762.6953125
187.98828125,41.9921875,-488.76953125,208.49609375
-1000.0,-1000.0,-717.7734375,-1000.0
-263.671875,-877.9296875,-819.3359375,-275.390625
-815.4296875,617.1875,-539.55078125,-815.4296875
237.3046875,305.17578125,-435.546875,548.33984375
-1000.0,-1000.0,-687.01171875,-1000.0
-733.3984375,-1000.0,-809.08203125,-524.90234375
912.109375,75.1953125,-610.3515625,986.328125
634.765625,578.125,-484.375,-954.58984375
-927.734375,-846.6796875,-664.55078125,-384.27734375
-1000.0,-1000.0,-759.27734375,-1000.0
138.18359375,-223.6328125,-648.4375,406.73828125
-845.703125,876.46484375,-534.1796875,-768.06640625
-205.56640625,-351.5625,-627.44140625,160.64453125
-1000.0,-1000.0,-696.77734375,-1000.0
-220.703125,-582.51953125,-701.66015625,-160.15625
-829.1015625,876.46484375,-610.3515625,-768.06640625
243.1640625,113.76953125,-623.53515625,214.35546875
-1000.0,-1000.0,-658.203125,-1000.0
-413.0859375,-1000.0,-667.96875,-270.99609375
-861.328125,423.828125,-661.62109375,-836.9140625
316.40625,375.9765625,-653.80859375,658.69140625
-1000.0,-1000.0,-629.39453125,-989.74609375
-886.23046875,-1000.0,-667.96875,-665.0390625
703.125,-4.39453125,-723.14453125,895.01953125
786.62109375,650.390625,-628.90625,-881.8359375
-780.76171875,-752.9296875,-608.88671875,-196.2890625
-1000.0,-1000.0,-750.9765625,-1000.0
-9.765625,-287.109375,-780.76171875,158.69140625
-834.47265625,915.52734375,-645.5078125,-752.44140625
-85.44921875,-254.39453125,-526.85546875,190.4296875
-1000.0,-1000.0,-610.83984375,-1000.0
-226.5625,-724.12109375,-796.38671875,-272.4609375
-827.1484375,748.53515625,-667.96875,-796.38671875
245.60546875,168.9453125,-491.69921875,347.65625
-1000.0,-1000.0,-557.6171875,-1000.0
-533.69140625,-1000.0,-771.484375,-358.88671875
-916.50390625,256.8359375,-670.8984375,-894.04296875
424.8046875,414.0625,-496.58203125,811.03515625
-1000.0,-997.0703125,-586.42578125,-769.53125
-1000.0,-1000.0,-806.15234375,-886.71875
483.88671875,-71.77734375,-705.078125,665.0390625
982.421875,764.16015625,-458.0078125,-822.75390625
-534.1796875,-602.5390625,-562.98828125,-75.68359375
-1000.0,-1000.0,-776.85546875,-1000.0
-101.07421875,-365.234375,-724.12109375,26.3671875
-817.3828125,990.72265625,-507.8125,-756.8359375
86.42578125,-25.390625,-545.8984375,200.68359375
-1000.0,-1000.0,-700.1953125,-1000.0
-243.1640625,-809.08203125,-712.40234375,-274.90234375
-818.359375,704.58984375,-580.078125,-804.6875
243.65234375,290.0390625,-632.32421875,444.3359375
-1000.0,-1000.0,-713.37890625,-1000.0
-611.328125,-1000.0,-715.8203125,-468.26171875
-967.28515625,179.6875,-639.16015625,-963.8671875
555.6640625,541.50390625,-625.48828125,938.4765625
-975.09765625,-898.4375,-648.92578125,-559.5703125
-1000.0,-1000.0,-734.375,-1000.0
271.97265625,-132.8125,-734.86328125,447.75390625
-899.4140625,853.515625,-594.23828125,-782.71484375
-335.44921875,-463.37890625,-576.66015625,60.05859375
-1000.0,-1000.0,-639.16015625,-1000.0
-213.8671875,-468.26171875,-724.609375,-116.69921875
-832.03125,953.61328125,-668.9453125,-769.04296875
204.58984375,57.6171875,-567.87109375,212.890625
-1000.0,-1000.0,-611.328125,-1000.0
-311.5234375,-922.36328125,-779.296875,-274.4140625
-831.0546875,553.22265625,-696.2890625,-819.82421875
243.1640625,333.49609375,-565.4296875,566.89453125
-1000.0,-1000.0,-614.2578125,-1000.0
-758.30078125,-1000.0,-755.859375,-604.00390625
875.48828125,65.4296875,-692.87109375,937.01171875
672.8515625,581.0546875,-500.9765625,-925.29296875
-892.08984375,-839.84375,-520.99609375,-312.01171875
-1000.0,-1000.0,-763.18359375,-1000.0
103.02734375,-214.35546875,-741.2109375,245.1171875
-835.44921875,904.78515625,-603.515625,-758.30078125
-165.0390625,-335.44921875,-625.0,176.26953125
-1000.0,-1000.0,-730.46875,-1000.0
-222.16796875,-606.4453125,-769.53125,-242.1875
-828.125,861.328125,-600.5859375,-788.57421875
244.140625,110.3515625,-584.9609375,236.328125
-1000.0,-1000.0,-673.828125,-1000.0
-445.80078125,-1000.0,-754.8828125,-277.34375
-874.51171875,354.4921875,-543.45703125,-843.75
350.5859375,393.5546875,-465.8203125,674.8046875
-1000.0,-1000.0,-694.3359375,-954.1015625
-894.04296875,-1000.0,-736.81640625,-741.2109375
666.9921875,-26.85546875,-625.9765625,819.82421875
878.41796875,732.91015625,-581.54296875,-865.234375
-676.7578125,-664.0625,-634.765625,-171.875
-1000.0,-1000.0,-708.49609375,-1000.0
20.5078125,-273.4375,-720.21484375,99.12109375
-811.03515625,-988.28125,-630.859375,-755.37109375
-13.18359375,-94.23828125,-609.86328125,195.3125
-1000.0,-1000.0,-649.4140625,-1000.0
-235.3515625,-685.05859375,-710.44921875,-272.4609375
-821.77734375,842.28515625,-632.32421875,-799.31640625
244.62890625,239.2578125,-609.375,365.234375
-1000.0,-1000.0,-609.375,-1000.0
-524.4140625,-1000.0,-691.40625,-409.1796875
-914.55078125,297.8515625,-698.2421875,-917.96875
490.72265625,496.58203125,-599.609375,837.890625
-1000.0,-950.1953125,-638.18359375,-739.74609375
-1000.0,-1000.0,-759.27734375,-912.59765625
461.9140625,-82.03125,-732.91015625,629.39453125
-981.4453125,825.68359375,-595.21484375,-813.4765625
-473.6328125,-529.78515625,-591.796875,-40.52734375
-1000.0,-1000.0,-695.80078125,-1000.0
-131.34765625,-367.67578125,-737.79296875,-7.8125
-820.80078125,992.67578125,-604.98046875,-758.30078125
104.00390625,-22.4609375,-458.984375,203.125
-1000.0,-1000.0,-606.93359375,-1000.0
-244.140625,-818.84765625,-813.96484375,-275.87890625
-817.87109375,690.4296875,-599.609375,-810.546875
243.65234375,277.34375,-488.76953125,494.62890625
-1000.0,-1000.0,-682.12890625,-1000.0
-632.32421875,-1000.0,-783.203125,-520.5078125
-982.421875,140.13671875,-671.38671875,-992.67578125
584.9609375,544.43359375,-572.75390625,976.5625
-949.70703125,-886.23046875,-638.18359375,-519.04296875
-1000.0,-1000.0,-762.6953125,-1000.0
203.61328125,-172.36328125,-668.9453125,455.078125
-875.9765625,873.046875,-539.55078125,-781.25
-285.15625,-416.015625,-619.62890625,72.265625
-1000.0,-1000.0,-699.21875,-1000.0
-216.30859375,-513.671875,-724.609375,-123.53515625
-830.078125,915.0390625,-604.00390625,-769.53125
221.6796875,83.49609375,-604.4921875,215.33203125
-1000.0,-1000.0,-693.359375,-1000.0
-314.94140625,-864.2578125,-733.88671875,-255.859375
-891.6015625,653.80859375,-610.3515625,-880.859375
188.4765625,338.37890625,-578.125,511.71875
-1000.0,-1000.0,-638.671875,-1000.0
-765.13671875,-1000.0,-682.12890625,-621.58203125
849.12109375,46.38671875,-646.97265625,926.7578125
757.8125,684.5703125,-621.09375,-915.0390625
-807.12890625,-740.72265625,-603.515625,-291.9921875
-1000.0,-1000.0,-670.8984375,-1000.0
103.02734375,-224.609375,-751.953125,232.421875
-819.82421875,989.2578125,-629.39453125,-757.32421875
-105.46875,-188.96484375,-592.28515625,187.01171875
-1000.0,-1000.0,-696.2890625,-1000.0
-227.5390625,-593.26171875,-746.58203125,-262.20703125
-824.21875,910.64453125,-614.74609375,-793.45703125
242.67578125,183.59375,-519.04296875,301.26953125
-1000.0,-1000.0,-594.23828125,-1000.0
-431.15234375,-1000.0,-791.50390625,-336.9140625
-869.140625,435.546875,-672.36328125,-869.62890625
413.0859375,441.89453125,-548.33984375,733.3984375
-1000.0,-1000.0,-653.3203125,-888.671875
-881.8359375,-1000.0,-775.390625,-796.38671875
676.26953125,-24.90234375,-698.2421875,768.06640625
940.91796875,827.63671875,-573.73046875,-849.12109375
-582.03125,-555.6640625,-615.72265625,-152.34375
-1000.0,-1000.0,-703.61328125,-1000.0
1.953125,-282.71484375,-733.3984375,97.16796875
-803.22265625,-972.16796875,-447.75390625,-753.90625
42.96875,-57.6171875,-431.640625,195.3125
-1000.0,-1000.0,-747.0703125,-1000.0
-241.69921875,-735.83984375,-754.39453125,-274.4140625
-819.3359375,786.1328125,-513.18359375,-801.26953125
244.140625,240.72265625,-553.7109375,403.80859375
-1000.0,-1000.0,-719.23828125,-1000.0
-567.3828125,-1000.0,-749.51171875,-428.7109375
-936.5234375,229.00390625,-655.2734375,-934.5703125
492.67578125,473.6328125,-597.16796875,885.7421875
-1000.0,-956.0546875,-634.27734375,-673.33984375
-1000.0,-1000.0,-687.5,-941.40625
348.6328125,-109.86328125,-664.0625,599.12109375
-960.9375,826.171875,-634.765625,-806.15234375
-446.77734375,-516.11328125,-613.76953125,-8.7890625
-1000.0,-1000.0,-693.359375,-1000.0
-167.48046875,-402.83203125,-763.671875,-39.0625
-823.73046875,988.28125,-635.25390625,-760.25390625
159.66796875,25.390625,-596.6796875,206.0546875
-1000.0,-1000.0,-669.921875,-1000.0
-250.48828125,-846.19140625,-768.06640625,-275.87890625
-814.453125,664.55078125,-653.80859375,-812.98828125
241.69921875,318.359375,-562.98828125,524.90234375
-1000.0,-1000.0,-616.2109375,-1000.0
-646.484375,-1000.0,-726.07421875,-535.64453125
-998.53515625,135.25390625,-709.47265625,991.69921875
620.1171875,598.6328125,-567.3828125,-990.72265625
-931.15234375,-844.23828125,-573.2421875,-433.10546875
-1000.0,-1000.0,-757.32421875,-1000.0
186.5234375,-164.55078125,-759.765625,339.84375
-834.47265625,926.7578125,-551.26953125,-768.5546875
-195.3125,-338.8671875,-537.59765625,123.046875
-1000.0,-1000.0,-723.6328125,-1000.0
-221.19140625,-491.69921875,-790.52734375,-181.640625
-824.21875,967.7734375,-524.4140625,-777.83203125
239.2578125,122.0703125,-447.265625,219.23828125
-1000.0,-1000.0,-705.56640625,-1000.0
-332.51953125,-928.7109375,-778.80859375,-272.94921875
-830.56640625,564.453125,-603.02734375,-825.68359375
335.44921875,424.8046875,-551.26953125,604.98046875
-1000.0,-1000.0,-686.5234375,-1000.0
-754.39453125,-1000.0,-761.23046875,-647.4609375
849.609375,45.8984375,-679.6875,905.2734375
837.40234375,771.484375,-591.796875,-894.53125
-705.56640625,-647.4609375,-631.34765625,-240.72265625
-1000.0,-1000.0,-716.30859375,-1000.0
100.09765625,-221.6796875,-696.77734375,171.38671875
-808.10546875,-980.95703125,-562.98828125,-754.39453125
-54.19921875,-135.25390625,-579.58984375,189.94140625
-1000.0,-1000.0,-677.24609375,-1000.0
-232.91015625,-617.1875,-676.7578125,-270.99609375
-821.2890625,902.34375,-597.16796875,-795.41015625
243.1640625,201.66015625,-620.1171875,314.453125
-1000.0,-1000.0,-651.85546875,-1000.0
-452.1484375,-1000.0,-695.80078125,-346.6796875
-876.46484375,375.0,-685.05859375,-875.9765625
422.36328125,461.9140625,-623.046875,750.9765625
-1000.0,-981.4453125,-644.53125,-869.62890625
-977.5390625,-1000.0,-718.75,-804.6875
544.921875,-49.31640625,-699.21875,753.41796875
947.265625,791.015625,-612.3046875,-841.30859375
-583.984375,-587.40234375,-543.9453125,-93.75
-1000.0,-1000.0,-639.16015625,-1000.0
-63.96484375,-314.453125,-774.90234375,38.0859375
-814.453125,-995.60546875,-621.09375,-756.34765625
56.640625,-65.91796875,-563.4765625,199.70703125
-1000.0,-1000.0,-700.1953125,-1000.0
-240.72265625,-754.8828125,-794.43359375,-274.4140625
-819.82421875,765.13671875,-643.5546875,-803.22265625
244.140625,257.32421875,-573.73046875,424.8046875
-1000.0,-1000.0,-655.2734375,-1000.0
-589.35546875,-1000.0,-746.58203125,-458.0078125
-952.1484375,212.40234375,-663.0859375,-949.21875
533.69140625,518.5546875,-415.52734375,902.83203125
-997.0703125,-923.33984375,-514.6484375,-646.97265625
-1000.0,-1000.0,-779.78515625,-962.890625
323.2421875,-120.60546875,-669.43359375,565.4296875
-896.484375,888.18359375,-467.7734375,-799.8046875
-332.03125,-426.26953125,-566.40625,29.78515625
-1000.0,-1000.0,-753.90625,-1000.0
-178.22265625,-410.64453125,-750.48828125,-88.37890625
-818.359375,-987.3046875,-600.5859375,-766.11328125
202.1484375,78.61328125,-574.70703125,210.44921875
-1000.0,-1000.0,-684.08203125,-1000.0
-257.32421875,-857.421875,-703.125,-274.90234375
-810.546875,663.0859375,-565.4296875,-814.453125
258.30078125,370.60546875,-613.76953125,531.25
-1000.0,-1000.0,-688.4765625,-1000.0
-644.04296875,-1000.0,-741.2109375,-568.84765625
982.91015625,135.25390625,-695.3125,967.7734375
709.9609375,694.82421875,-609.375,-968.75
-840.8203125,-753.90625,-615.72265625,-393.06640625
-1000.0,-1000.0,-714.84375,-1000.0
180.17578125,-173.33984375,-725.09765625,292.96875
-821.2890625,994.140625,-579.58984375,-764.6484375
-144.04296875,-224.12109375,-576.171875,152.83203125
-1000.0,-1000.0,-633.30078125,-1000.0
-225.09765625,-497.55859375,-713.37890625,-221.6796875
-821.77734375,992.67578125,-657.71484375,-785.15625
239.74609375,166.9921875,-566.89453125,223.6328125
-1000.0,-1000.0,-620.1171875,-1000.0
-348.6328125,-956.0546875,-777.83203125,-269.53125
-837.40234375,525.390625,-676.26953125,-837.890625
373.53515625,438.96484375,-572.75390625,657.2265625
-1000.0,-1000.0,-667.96875,-985.3515625
-759.765625,-1000.0,-750.0,-701.66015625
877.9296875,200.68359375,-674.8046875,867.1875
852.5390625,727.05078125,-489.74609375,-872.55859375
-679.19921875,-668.9453125,-479.00390625,-183.10546875
-1000.0,-1000.0,-752.44140625,-1000.0
50.29296875,-249.0234375,-764.16015625,128.90625
-809.5703125,-984.86328125,-529.78515625,-753.41796875
-28.80859375,-115.234375,-545.8984375,192.87109375
-1000.0,-1000.0,-741.2109375,-1000.0
-235.83984375,-661.62109375,-765.13671875,-273.4375
-814.94140625,858.88671875,-610.83984375,-789.0625
225.5859375,214.84375,-597.65625,317.87109375
-1000.0,-1000.0,-675.78125,-1000.0
-415.52734375,-1000.0,-753.41796875,-273.4375
-914.55078125,312.01171875,-566.40625,-909.1796875
470.703125,478.515625,-487.3046875,817.87109375
-1000.0,-964.84375,-686.5234375,-766.11328125
-978.02734375,-1000.0,-725.5859375,-873.53515625
524.90234375,-70.3125,-623.53515625,682.12890625
-986.81640625,847.65625,-584.47265625,-825.1953125
-484.375,-513.671875,-646.484375,-65.91796875
-1000.0,-1000.0,-713.37890625,-1000.0
-69.82421875,-324.70703125,-720.21484375,7.32421875
-805.6640625,-950.68359375,-627.9296875,-758.30078125
108.3984375,35.15625,-617.1875,202.1484375
-1000.0,-1000.0,-640.625,-1000.0
-247.55859375,-756.8359375,-703.125,-274.90234375
-815.91796875,788.57421875,-659.66796875,-806.640625
243.1640625,313.96484375,-592.28515625,457.03125
-1000.0,-1000.0,-662.109375,-1000.0
-577.63671875,-1000.0,-769.53125,-487.79296875
-952.63671875,226.07421875,-678.22265625,-979.00390625
596.6796875,597.65625,-558.59375,962.40234375
-960.9375,-862.3046875,-604.4921875,-531.73828125
-1000.0,-1000.0,-747.55859375,-1000.0
330.56640625,-123.53515625,-744.140625,454.1015625
-861.328125,943.84765625,-581.0546875,-780.76171875
-261.71875,-346.19140625,-560.546875,71.2890625
-1000.0,-1000.0,-699.70703125,-1000.0
-187.01171875,-416.015625,-751.953125,-114.74609375
-815.4296875,-975.5859375,-611.328125,-767.578125
230.95703125,103.515625,-476.07421875,212.40234375
-1000.0,-1000.0,-610.83984375,-1000.0
-271.484375,-871.09375,-812.98828125,-274.90234375
-810.546875,649.90234375,-608.3984375,-819.3359375
291.015625,385.7421875,-505.37109375,564.453125
-1000.0,-1000.0,-679.6875,-1000.0
-704.1015625,-1000.0,-773.92578125,-589.84375
923.828125,92.7734375,-629.8828125,944.3359375
748.53515625,710.9375,-493.65234375,-927.24609375
-811.5234375,-728.02734375,-622.0703125,-310.05859375
-1000.0,-1000.0,-763.18359375,-1000.0
166.9921875,-196.77734375,-675.78125,247.55859375
-814.94140625,-985.3515625,-530.2734375,-758.30078125
-115.234375,-167.48046875,-628.41796875,185.546875
-1000.0,-1000.0,-728.02734375,-1000.0
-227.5390625,-529.296875,-732.91015625,-243.65234375
-822.75390625,977.5390625,-622.0703125,-787.59765625
243.1640625,195.80078125,-611.328125,251.953125
-1000.0,-1000.0,-695.80078125,-1000.0
-378.90625,-919.921875,-749.51171875,-284.1796875
-910.64453125,495.1171875,-617.1875,-874.51171875
308.10546875,342.7734375,-549.8046875,672.36328125
-1000.0,-992.1875,-633.30078125,-925.29296875
-882.8125,-1000.0,-684.08203125,-729.00390625
689.94140625,-12.6953125,-665.0390625,836.42578125
895.99609375,770.5078125,-621.58203125,-865.234375
-648.4375,-629.39453125,-576.66015625,-161.62109375
-1000.0,-1000.0,-651.3671875,-1000.0
22.94921875,-273.92578125,-750.48828125,103.02734375
-798.33984375,-966.30859375,-626.46484375,-747.0703125
-6.34765625,-71.2890625,-586.9140625,176.26953125
-1000.0,-1000.0,-693.84765625,-1000.0
-149.90234375,-602.5390625,-748.53515625,-185.546875
-829.1015625,881.8359375,-627.44140625,-811.5234375
242.67578125,261.23046875,-530.2734375,394.04296875
-1000.0,-1000.0,-614.74609375,-1000.0
-471.19140625,-1000.0,-776.85546875,-419.43359375
-891.6015625,365.72265625,-661.1328125,-921.875
523.92578125,568.84765625,-534.66796875,851.5625
-1000.0,-903.3203125,-621.09375,-721.19140625
-981.4453125,-1000.0,-774.90234375,-920.8984375
512.6953125,-76.171875,-708.984375,624.0234375
-929.6875,921.875,-587.890625,-813.96484375
-383.30078125,-408.69140625,-608.3984375,-48.33984375
-1000.0,-1000.0,-698.2421875,-1000.0
-98.14453125,-346.6796875,-744.140625,-11.23046875
-803.22265625,-960.44921875,-435.05859375,-759.765625
157.71484375,41.9921875,-428.7109375,203.61328125
-1000.0,-1000.0,-756.34765625,-1000.0
-253.41796875,-788.57421875,-749.51171875,-275.87890625
-812.5,750.0,-582.51953125,-811.5234375
242.1875,343.26171875,-597.65625,511.71875
-1000.0,-1000.0,-692.3828125,-1000.0
-583.984375,-1000.0,-701.66015625,-522.94921875
-971.6796875,205.078125,-615.234375,-993.1640625
673.828125,702.63671875,-584.9609375,981.4453125
-893.5546875,-764.16015625,-614.74609375,-503.90625
-1000.0,-1000.0,-683.59375,-1000.0
305.6640625,-138.18359375,-665.0390625,434.5703125
-830.078125,-996.58203125,-616.2109375,-779.296875
-177.24609375,-238.28125,-614.2578125,73.2421875
-1000.0,-1000.0,-703.125,-1000.0
-209.9609375,-444.82421875,-766.11328125,-134.27734375
-818.359375,-977.5390625,-635.25390625,-771.484375
235.83984375,132.32421875,-593.26171875,214.84375
-1000.0,-1000.0,-689.453125,-1000.0
-313.4765625,-919.921875,-780.2734375,-273.92578125
-824.70703125,581.0546875,-630.37109375,-826.171875
309.5703125,385.7421875,-561.03515625,607.91015625
-1000.0,-1000.0,-588.8671875,-1000.0
-735.83984375,-1000.0,-675.78125,-648.92578125
878.41796875,66.89453125,-716.796875,906.73828125
795.41015625,735.83984375,-570.80078125,-895.01953125
-760.25390625,-694.3359375,-548.33984375,-260.7421875
-1000.0,-1000.0,-722.65625,-1000.0
134.27734375,-210.44921875,-768.06640625,215.8203125
-806.15234375,-982.421875,-566.89453125,-755.859375
-62.98828125,-144.53125,-552.734375,188.4765625
-1000.0,-1000.0,-733.3984375,-1000.0
-232.421875,-577.1484375,-792.96875,-270.01953125
-820.80078125,937.5,-533.69140625,-795.8984375
242.1875,193.359375,-466.30859375,298.33984375
-1000.0,-1000.0,-680.6640625,-1000.0
-428.7109375,-1000.0,-765.625,-340.33203125
-868.65234375,439.94140625,-571.77734375,-874.0234375
432.6171875,480.95703125,-491.2109375,744.62890625
-1000.0,-979.4921875,-681.640625,-875.48828125
-863.28125,-1000.0,-746.58203125,-806.15234375
677.734375,-34.1796875,-690.4296875,750.0
-992.1875,906.25,-595.21484375,-821.2890625
-543.45703125,-517.08984375,-629.39453125,-187.98828125
-1000.0,-1000.0,-726.07421875,-1000.0
217.28515625,-84.47265625,-701.171875,369.140625
-806.640625,-922.8515625,-563.96484375,-774.4140625
86.9140625,67.3828125,-561.5234375,189.453125
-1000.0,-1000.0,-676.26953125,-1000.0
-248.046875,-648.92578125,-678.7109375,-274.4140625
-813.96484375,917.48046875,-570.3125,-802.24609375
242.1875,302.24609375,-590.8203125,415.0390625
-1000.0,-1000.0,-651.3671875,-1000.0
-515.625,-1000.0,-715.33203125,-447.75390625
-914.55078125,317.87109375,-683.59375,-941.89453125
545.41015625,575.1953125,-619.62890625,888.18359375
-1000.0,-892.08984375,-614.74609375,-659.66796875
-1000.0,-1000.0,-659.66796875,-975.09765625
430.17578125,-97.16796875,-704.58984375,545.8984375
-895.5078125,927.24609375,-617.67578125,-797.8515625
-329.58984375,-391.6015625,-557.12890625,22.4609375
-1000.0,-1000.0,-668.9453125,-1000.0
-114.2578125,-351.5625,-783.203125,-75.68359375
-800.29296875,-925.78125,-614.74609375,-764.6484375
208.0078125,122.55859375,-576.66015625,208.984375
-1000.0,-1000.0,-711.9140625,-1000.0
-262.6953125,-774.4140625,-773.92578125,-275.390625
-808.59375,787.59765625,-625.0,-813.4765625
280.76171875,375.48828125,-521.484375,527.34375
-1000.0,-1000.0,-635.25390625,-1000.0
-614.74609375,-1000.0,-754.39453125,-538.0859375
-983.88671875,175.78125,-676.26953125,987.79296875
680.6640625,662.109375,-466.796875,-982.91015625
-863.28125,-789.55078125,-529.296875,-417.96875
-1000.0,-1000.0,-808.59375,-1000.0
194.82421875,-167.48046875,-696.77734375,332.51953125
-829.58984375,951.171875,-513.18359375,-767.578125
-179.19921875,-302.734375,-632.32421875,146.97265625
-1000.0,-1000.0,-749.0234375,-1000.0
-222.65625,-520.99609375,-759.27734375,-211.42578125
-823.2421875,952.1484375,-613.28125,-783.203125
239.2578125,141.11328125,-563.96484375,222.65625
-1000.0,-1000.0,-688.4765625,-1000.0
-336.9140625,-949.70703125,-710.44921875,-272.4609375
-832.51953125,532.2265625,-572.75390625,-827.63671875
382.8125,451.66015625,-604.98046875,618.1640625
-1000.0,-1000.0,-668.9453125,-1000.0
-738.28125,-1000.0,-728.515625,-656.25
860.3515625,49.8046875,-694.3359375,898.4375
884.765625,856.93359375,-595.21484375,-889.6484375
-645.5078125,-554.6875,-621.58203125,-213.8671875
-1000.0,-1000.0,-743.65234375,-1000.0
137.6953125,-213.37890625,-738.76953125,140.13671875
-795.41015625,-932.6171875,-562.5,-755.37109375
-22.4609375,-49.8046875,-566.89453125,192.3828125
-1000.0,-1000.0,-656.25,-1000.0
-236.81640625,-581.0546875,-711.42578125,-271.97265625
-817.87109375,955.56640625,-652.34375,-795.8984375
241.69921875,238.76953125,-571.77734375,333.49609375
-1000.0,-1000.0,-613.28125,-1000.0
-428.22265625,-1000.0,-767.08984375,-358.3984375
-874.0234375,440.4296875,-690.4296875,-889.6484375
510.25390625,548.33984375,-564.94140625,794.43359375
-1000.0,-933.59375,-638.671875,-834.47265625
-820.80078125,-1000.0,-758.7890625,-784.1796875
755.859375,-39.0625,-683.10546875,804.19921875
-975.5859375,941.40625,-474.12109375,-844.23828125
-436.5234375,-405.76171875,-487.3046875,-77.63671875
-1000.0,-1000.0,-759.765625,-1000.0
17.578125,-272.4609375,-754.8828125,15.13671875
-784.66796875,-902.83203125,-576.66015625,-758.30078125
129.39453125,73.73046875,-578.125,201.66015625
-1000.0,-1000.0,-705.56640625,-1000.0
-253.41796875,-710.44921875,-772.94921875,-274.90234375
-812.01171875,850.09765625,-574.70703125,-805.6640625
242.1875,303.7109375,-556.640625,454.58984375
-1000.0,-1000.0,-692.87109375,-1000.0
-544.921875,-1000.0,-762.6953125,-473.14453125
-934.08203125,241.69921875,-560.546875,-961.42578125
593.26171875,604.98046875,-459.47265625,930.17578125
-970.21484375,-858.3984375,-683.59375,-593.26171875
-1000.0,-1000.0,-746.58203125,-998.53515625
383.30078125,-127.9296875,-653.3203125,516.6015625
-852.5390625,986.328125,-602.05078125,-790.52734375
-245.60546875,-280.2734375,-640.13671875,53.22265625
-1000.0,-1000.0,-710.9375,-1000.0
-144.04296875,-364.74609375,-731.93359375,-100.5859375
-802.734375,-917.96875,-593.75,-766.6015625
224.12109375,150.390625,-594.23828125,211.42578125
-1000.0,-1000.0,-654.78515625,-1000.0
-264.6484375,-819.82421875,-682.12890625,-274.90234375
-808.10546875,735.3515625,-651.3671875,-819.3359375
290.0390625,382.8125,-607.421875,562.98828125
-1000.0,-1000.0,-658.69140625,-1000.0
-678.22265625,-1000.0,-755.37109375,-594.23828125
956.0546875,117.1875,-710.44921875,943.84765625
718.75,675.29296875,-580.078125,-930.6640625
-833.984375,-766.6015625,-614.74609375,-328.125
-1000.0,-1000.0,-763.671875,-1000.0
158.69140625,-194.3359375,-746.58203125,278.80859375
-819.3359375,989.2578125,-584.47265625,-760.7421875
-129.8828125,-216.796875,-564.453125,176.26953125
-1000.0,-1000.0,-705.078125,-1000.0
-226.5625,-487.79296875,-749.51171875,-240.72265625
-818.84765625,-986.328125,-593.75,-789.0625
236.81640625,216.30859375,-452.1484375,245.60546875
-1000.0,-1000.0,-586.42578125,-1000.0
-306.15234375,-882.8125,-808.10546875,-305.6640625
-823.73046875,651.85546875,-606.93359375,-853.515625
451.66015625,533.203125,-448.73046875,683.59375
-1000.0,-954.58984375,-645.99609375,-944.3359375
-743.65234375,-1000.0,-782.2265625,-764.6484375
855.95703125,54.6875,-669.921875,793.45703125
930.17578125,889.16015625,-542.48046875,-858.88671875
-560.05859375,-506.8359375,-602.05078125,-169.43359375
-1000.0,-1000.0,-760.7421875,-1000.0
60.546875,-250.48828125,-690.4296875,105.95703125
-796.875,-949.21875,-497.55859375,-754.39453125
18.06640625,-47.8515625,-598.6328125,194.82421875
-1000.0,-1000.0,-735.3515625,-1000.0
-239.74609375,-655.76171875,-739.2578125,-272.94921875
-816.40625,886.23046875,-630.37109375,-799.31640625
241.69921875,264.16015625,-602.5390625,370.60546875
-1000.0,-1000.0,-690.4296875,-1000.0
-445.3125,-1000.0,-754.8828125,-397.94921875
-883.30078125,408.69140625,-644.53125,-917.96875
551.26953125,611.81640625,-559.08203125,854.00390625
-1000.0,-881.34765625,-634.765625,-715.33203125
-888.671875,-1000.0,-675.29296875,-915.0390625
632.8125,-49.31640625,-646.97265625,632.32421875
-898.4375,-992.1875,-596.6796875,-814.453125
-311.03515625,-293.45703125,-595.703125,-42.48046875
-1000.0,-1000.0,-689.453125,-1000.0
-22.4609375,-292.48046875,-723.6328125,-15.625
-784.1796875,-899.4140625,-633.7890625,-759.765625
168.45703125,88.8671875,-575.68359375,204.1015625
-1000.0,-1000.0,-651.3671875,-1000.0
-257.8125,-784.66796875,-761.23046875,-275.87890625
-811.5234375,762.6953125,-634.765625,-811.03515625
241.2109375,305.6640625,-515.13671875,507.32421875
-1000.0,-1000.0,-605.46875,-1000.0
-612.3046875,-1000.0,-803.7109375,-508.7890625
-976.07421875,173.33984375,-690.4296875,-987.79296875
617.67578125,604.98046875,-565.4296875,982.91015625
-956.54296875,-850.09765625,-655.76171875,-493.1640625
-1000.0,-1000.0,-767.08984375,-1000.0
315.91796875,-140.625,-718.75,420.8984375
-826.171875,-985.83984375,-560.05859375,-776.3671875
-176.7578125,-223.14453125,-578.125,85.9375
-1000.0,-1000.0,-703.125,-1000.0
-158.203125,-371.09375,-752.44140625,-133.30078125
-801.26953125,-904.296875,-455.56640625,-770.01953125
225.09765625,190.91796875,-417.96875,213.8671875
-1000.0,-1000.0,-735.83984375,-1000.0
-267.08984375,-835.44921875,-766.11328125,-274.4140625
-807.6171875,722.65625,-511.71875,-823.2421875
336.9140625,435.05859375,-523.4375,590.33203125
-1000.0,-1000.0,-728.515625,-1000.0
-725.5859375,-1000.0,-741.69921875,-612.3046875
928.22265625,89.35546875,-661.62109375,948.2421875
724.12109375,743.1640625,-588.37890625,-958.0078125
-858.3984375,-691.40625,-612.3046875,-354.98046875
-1000.0,-1000.0,-678.7109375,-1000.0
138.18359375,-210.9375,-654.78515625,245.60546875
-807.6171875,-963.37890625,-608.88671875,-760.25390625
-61.03515625,-109.86328125,-614.74609375,187.5
-1000.0,-1000.0,-691.40625,-1000.0
-232.91015625,-488.28125,-744.140625,-269.53125
-815.4296875,-967.7734375,-623.046875,-795.41015625
236.81640625,259.27734375,-575.68359375,291.015625
-1000.0,-1000.0,-685.546875,-1000.0
-320.80078125,-898.4375,-785.64453125,-333.0078125
-832.03125,632.32421875,-651.85546875,-870.60546875
495.60546875,588.37890625,-561.03515625,735.83984375
-1000.0,-905.76171875,-619.62890625,-887.6953125
-780.2734375,-1000.0,-729.00390625,-790.0390625
812.01171875,28.3203125,-717.28515625,771.484375
974.12109375,919.43359375,-562.01171875,-847.16796875
-497.55859375,-460.9375,-541.9921875,-130.37109375
-1000.0,-1000.0,-728.02734375,-1000.0
29.296875,-261.71875,-775.390625,85.44921875
-794.921875,-953.61328125,-558.59375,-753.41796875
50.78125,-46.875,-524.4140625,195.80078125
-1000.0,-1000.0,-729.4921875,-1000.0
-243.1640625,-696.77734375,-794.921875,-274.90234375
-816.40625,839.84375,-516.6015625,-802.734375
242.67578125,272.4609375,-454.58984375,417.96875
-1000.0,-1000.0,-708.0078125,-1000.0
-496.58203125,-1000.0,-773.92578125,-446.2890625
-911.1328125,344.7265625,-634.765625,-939.94140625
592.28515625,648.92578125,-565.91796875,886.23046875
-999.0234375,-840.8203125,-665.52734375,-674.31640625
-953.61328125,-1000.0,-753.41796875,-947.265625
541.015625,-83.49609375,-662.59765625,589.84375
-869.62890625,-983.88671875,-546.875,-803.22265625
-264.16015625,-255.859375,-615.234375,-7.8125
-1000.0,-1000.0,-736.81640625,-1000.0
-79.1015625,-335.44921875,-667.48046875,-21.484375
-790.52734375,-907.71484375,-501.953125,-757.8125
199.21875,118.65234375,-581.0546875,203.61328125
-1000.0,-1000.0,-704.58984375,-1000.0
-260.25390625,-818.359375,-708.984375,-276.3671875
-810.05859375,729.98046875,-617.1875,-813.96484375
240.72265625,347.16796875,-623.046875,529.78515625
-1000.0,-1000.0,-664.0625,-1000.0
-617.1875,-1000.0,-726.07421875,-555.17578125
-996.09375,156.73828125,-690.91796875,981.4453125
694.82421875,684.5703125,-593.75,-984.375
-877.9296875,-772.94921875,-627.9296875,-446.2890625
-1000.0,-1000.0,-723.6328125,-1000.0
278.80859375,-161.62109375,-699.70703125,389.6484375
-811.5234375,-939.453125,-582.51953125,-773.92578125
-119.62890625,-112.3046875,-542.48046875,120.1171875
-1000.0,-1000.0,-644.53125,-1000.0
-183.10546875,-380.37109375,-778.3203125,-201.66015625
-803.7109375,-895.01953125,-621.09375,-783.203125
227.5390625,220.21484375,-559.5703125,222.16796875
-1000.0,-1000.0,-713.37890625,-1000.0
-269.04296875,-836.9140625,-784.1796875,-271.484375
-810.05859375,726.5625,-625.9765625,-831.0546875
397.94921875,481.93359375,-551.7578125,631.34765625
-1000.0,-1000.0,-651.3671875,-1000.0
-701.171875,-1000.0,-741.69921875,-673.33984375
931.640625,163.0859375,-678.22265625,887.6953125
850.09765625,776.3671875,-420.41015625,-883.7890625
-673.33984375,-635.25390625,-489.74609375,-212.40234375
-1000.0,-1000.0,-795.8984375,-1000.0
117.67578125,-226.07421875,-727.5390625,156.25
-798.828125,-941.40625,-430.17578125,-753.41796875
-22.94921875,-52.734375,-500.48828125,190.91796875
-1000.0,-1000.0,-770.99609375,-1000.0
-236.328125,-547.36328125,-749.0234375,-271.484375
-815.4296875,991.2109375,-578.125,-795.41015625
239.2578125,273.4375,-556.15234375,324.70703125
-1000.0,-1000.0,-702.63671875,-1000.0
-369.62890625,-966.796875,-733.3984375,-348.14453125
-849.609375,523.4375,-579.58984375,-884.27734375
512.6953125,608.3984375,-598.14453125,780.2734375
-1000.0,-886.71875,-662.109375,-813.96484375
-854.4921875,-1000.0,-722.16796875,-866.2109375
710.44921875,-19.04296875,-687.98828125,686.03515625
-982.421875,945.3125,-598.6328125,-829.1015625
-448.73046875,-403.80859375,-621.58203125,-85.9375
-1000.0,-1000.0,-718.26171875,-1000.0
-6.34765625,-287.59765625,-731.93359375,25.390625
-793.9453125,-932.6171875,-576.66015625,-757.32421875
89.84375,21.97265625,-568.84765625,200.68359375
-1000.0,-1000.0,-644.53125,-1000.0
-247.0703125,-724.12109375,-716.30859375,-274.90234375
-814.94140625,825.1953125,-647.94921875,-804.6875
242.67578125,311.03515625,-566.89453125,447.265625
-1000.0,-1000.0,-645.01953125,-1000.0
-527.34375,-1000.0,-783.203125,-463.37890625
-928.7109375,288.0859375,-689.94140625,-961.42578125
613.28125,661.1328125,-531.73828125,939.453125
-978.02734375,-820.3125,-614.74609375,-565.91796875
-992.67578125,-1000.0,-763.671875,-1000.0
471.6796875,-100.5859375,-703.61328125,478.02734375
-841.30859375,-978.02734375,-465.8203125,-784.1796875
-207.03125,-237.3046875,-437.98828125,70.80078125
-1000.0,-1000.0,-751.46484375,-1000.0
-92.7734375,-332.51953125,-776.85546875,-113.76953125
-788.57421875,-889.16015625,-522.4609375,-767.578125
216.796875,169.921875,-529.78515625,212.40234375
-1000.0,-1000.0,-737.79296875,-1000.0
-267.08984375,-797.36328125,-770.99609375,-274.4140625
-807.12890625,770.01953125,-591.796875,-816.40625
311.5234375,415.0390625,-575.1953125,549.31640625
-1000.0,-1000.0,-691.89453125,-1000.0
-620.1171875,-1000.0,-756.34765625,-556.15234375
989.2578125,148.92578125,-578.61328125,966.796875
750.9765625,786.62109375,-439.94140625,-943.359375
-797.8515625,-661.62109375,-620.60546875,-343.26171875
-1000.0,-1000.0,-750.0,-1000.0
256.8359375,-171.38671875,-634.27734375,301.26953125
-803.7109375,-924.31640625,-537.59765625,-763.671875
-79.1015625,-73.2421875,-652.34375,174.8046875
-1000.0,-1000.0,-720.21484375,-1000.0
-218.26171875,-428.22265625,-716.30859375,-251.46484375
-811.5234375,-923.33984375,-616.2109375,-791.50390625
234.375,223.6328125,-596.6796875,236.81640625
-1000.0,-1000.0,-646.484375,-1000.0
-309.5703125,-893.5546875,-705.56640625,-291.50390625
-823.73046875,644.04296875,-667.48046875,-846.19140625
421.875,512.20703125,-587.40234375,667.96875
-1000.0,-966.30859375,-627.44140625,-966.30859375
-761.71875,-1000.0,-745.1171875,-735.83984375
830.078125,38.0859375,-717.28515625,823.2421875
932.6171875,885.7421875,-577.1484375,-866.2109375
-576.171875,-512.20703125,-596.19140625,-177.734375
-1000.0,-1000.0,-751.46484375,-1000.0
97.65625,-227.05078125,-746.09375,113.76953125
-790.0390625,-917.48046875,-587.40234375,-754.39453125
33.203125,-3.41796875,-576.171875,194.3359375
-1000.0,-1000.0,-687.98828125,-1000.0
-242.67578125,-577.1484375,-757.8125,-273.4375
-814.453125,970.21484375,-622.55859375,-799.8046875
241.2109375,258.30078125,-530.2734375,378.41796875
-1000.0,-1000.0,-681.15234375,-1000.0
-437.98828125,-1000.0,-793.45703125,-409.1796875
-877.44140625,434.5703125,-637.20703125,-916.015625
523.4375,577.1484375,-393.5546875,838.37890625
-1000.0,-908.203125,-554.19921875,-743.65234375
-916.015625,-1000.0,-805.6640625,-898.92578125
603.02734375,-85.9375,-657.2265625,649.90234375
-924.8046875,910.64453125,-481.93359375,-818.84765625
-364.74609375,-370.60546875,-589.35546875,-51.26953125
-1000.0,-1000.0,-769.53125,-1000.0
-47.8515625,-307.12890625,-687.01171875,-10.25390625
-790.52734375,-902.34375,-509.27734375,-759.765625
174.31640625,117.1875,-609.86328125,203.61328125
-1000.0,-1000.0,-724.12109375,-1000.0
-257.8125,-685.05859375,-763.671875,-275.390625
-808.10546875,888.671875,-632.32421875,-810.546875
245.1171875,379.8828125,-595.703125,494.140625
-1000.0,-1000.0,-695.3125,-1000.0
-516.11328125,-1000.0,-732.91015625,-523.4375
-940.4296875,397.4609375,-635.7421875,-995.1171875
692.3828125,739.74609375,-545.8984375,979.4921875
-891.11328125,-732.91015625,-611.81640625,-515.625
-1000.0,-1000.0,-678.7109375,-1000.0
439.453125,-117.1875,-655.2734375,454.1015625
-831.0546875,-943.359375,-614.74609375,-781.25
-163.57421875,-155.2734375,-594.23828125,72.75390625
-1000.0,-1000.0,-678.22265625,-1000.0
-155.76171875,-369.140625,-769.04296875,-127.9296875
-799.31640625,-899.90234375,-629.8828125,-770.5078125
224.609375,179.6875,-581.54296875,213.8671875
-1000.0,-1000.0,-694.82421875,-1000.0
-267.08984375,-830.56640625,-740.234375,-274.4140625
-807.12890625,728.02734375,-626.46484375,-824.70703125
333.0078125,434.08203125,-509.27734375,598.14453125
-1000.0,-1000.0,-572.265625,-1000.0
-630.37109375,-1000.0,-787.109375,-643.06640625
970.21484375,141.11328125,-702.63671875,913.0859375
835.9375,831.54296875,-494.140625,-905.76171875
-698.2421875,-606.93359375,-577.63671875,-281.25
-1000.0,-1000.0,-785.15625,-1000.0
221.6796875,-178.7109375,-719.7265625,215.33203125
-788.57421875,-902.83203125,-581.0546875,-749.0234375
-58.59375,-44.43359375,-602.5390625,169.43359375
-1000.0,-1000.0,-702.63671875,-1000.0
-147.94921875,-414.0625,-768.06640625,-176.7578125
-826.171875,-967.28515625,-468.75,-804.19921875
239.2578125,230.46875,-425.29296875,279.78515625
-1000.0,-1000.0,-745.1171875,-1000.0
-356.93359375,-966.30859375,-768.5546875,-309.5703125
-839.84375,526.85546875,-549.31640625,-864.2578125
434.5703125,508.7890625,-535.15625,735.3515625
-1000.0,-963.8671875,-710.9375,-883.30078125
-842.7734375,-1000.0,-733.88671875,-790.0390625
747.0703125,11.23046875,-660.64453125,800.78125
921.38671875,852.5390625,-592.7734375,-906.73828125
-612.3046875,-555.6640625,-613.76953125,-224.609375
-1000.0,-1000.0,-686.03515625,-1000.0
55.17578125,-249.0234375,-663.0859375,81.0546875
-789.0625,-895.99609375,-611.328125,-756.8359375
86.9140625,76.66015625,-609.375,196.2890625
-1000.0,-1000.0,-714.35546875,-1000.0
-248.53515625,-574.70703125,-779.78515625,-273.92578125
-811.03515625,989.74609375,-630.37109375,-801.26953125
240.234375,324.70703125,-564.453125,402.83203125
-1000.0,-1000.0,-657.71484375,-1000.0
-442.87109375,-1000.0,-775.390625,-433.10546875
-884.27734375,435.05859375,-661.62109375,-936.5234375
575.1953125,643.5546875,-529.78515625,883.7890625
-996.58203125,-847.65625,-563.4765625,-666.015625
-961.9140625,-1000.0,-694.3359375,-967.7734375
541.50390625,-69.82421875,-729.98046875,558.10546875
-891.11328125,979.00390625,-576.171875,-799.31640625
-309.5703125,-332.51953125,-568.359375,15.13671875
-1000.0,-1000.0,-744.140625,-1000.0
-72.75390625,-315.4296875,-779.296875,-67.87109375
-773.92578125,-886.71875,-577.1484375,-748.046875
176.26953125,125.9765625,-556.640625,170.8984375
-1000.0,-1000.0,-720.703125,-1000.0
-85.44921875,-587.40234375,-787.109375,-93.75
-822.75390625,874.51171875,-544.921875,-830.56640625
301.7578125,418.9453125,-415.52734375,514.6484375
-1000.0,-1000.0,-666.50390625,-1000.0
-536.1328125,-1000.0,-798.33984375,-545.41015625
-950.68359375,292.96875,-588.8671875,988.28125
729.00390625,803.22265625,-447.75390625,-994.140625
-826.171875,-668.9453125,-641.6015625,-452.63671875
-1000.0,-1000.0,-770.01953125,-1000.0
338.8671875,-131.8359375,-695.3125,361.81640625
-822.75390625,-956.0546875,-579.58984375,-769.53125
-146.97265625,-167.48046875,-614.2578125,126.46484375
-1000.0,-1000.0,-736.81640625,-1000.0
-206.0546875,-429.19921875,-744.140625,-163.0859375
-812.98828125,-942.3828125,-566.40625,-772.4609375
232.91015625,178.7109375,-541.50390625,216.30859375
-1000.0,-1000.0,-696.77734375,-1000.0
-285.64453125,-880.859375,-690.91796875,-273.4375
-814.453125,654.78515625,-581.54296875,-826.66015625
391.6015625,478.515625,-616.69921875,608.88671875
-1000.0,-1000.0,-655.76171875,-1000.0
-663.57421875,-1000.0,-704.1015625,-653.80859375
936.5234375,105.95703125,-697.75390625,901.3671875
888.18359375,919.43359375,-601.07421875,-893.06640625
-628.41796875,-494.140625,-612.3046875,-235.3515625
-1000.0,-1000.0,-708.984375,-1000.0
182.12890625,-186.5234375,-719.23828125,160.15625
-786.62109375,-886.23046875,-610.83984375,-754.8828125
7.32421875,23.92578125,-543.9453125,190.91796875
-1000.0,-1000.0,-660.15625,-1000.0
-241.2109375,-508.30078125,-793.45703125,-271.97265625
-814.453125,-969.23828125,-602.5390625,-795.41015625
239.2578125,241.2109375,-551.7578125,331.0546875
-1000.0,-1000.0,-704.1015625,-1000.0
-394.53125,-978.02734375,-788.57421875,-353.515625
-857.421875,507.32421875,-650.87890625,-883.30078125
490.72265625,547.8515625,-549.31640625,775.390625
-1000.0,-937.01171875,-635.7421875,-833.0078125
-856.93359375,-1000.0,-740.72265625,-832.03125
695.3125,-23.92578125,-711.42578125,730.46875
-972.65625,947.75390625,-434.08203125,-839.35546875
-450.68359375,-404.296875,-467.7734375,-104.98046875
-1000.0,-1000.0,-796.38671875,-1000.0
42.48046875,-251.46484375,-724.12109375,29.296875
-779.78515625,-873.53515625,-508.30078125,-758.7890625
152.34375,127.44140625,-579.1015625,201.171875
-1000.0,-1000.0,-749.0234375,-1000.0
-257.32421875,-595.703125,-721.6796875,-274.90234375
-807.12890625,977.5390625,-555.6640625,-803.7109375
239.2578125,345.21484375,-564.94140625,437.5
-1000.0,-1000.0,-697.75390625,-1000.0
-463.37890625,-1000.0,-714.35546875,-461.9140625
-896.97265625,386.71875,-585.44921875,-953.125
607.421875,702.63671875,-595.703125,913.0859375
-971.6796875,-787.59765625,-666.015625,-613.28125
-987.3046875,-1000.0,-740.72265625,-1000.0
489.2578125,-93.75,-708.49609375,508.7890625
-848.6328125,-979.4921875,-607.421875,-790.52734375
-226.5625,-242.67578125,-615.234375,33.69140625
-1000.0,-1000.0,-737.79296875,-1000.0
-92.28515625,-335.44921875,-735.83984375,-75.1953125
-789.55078125,-896.97265625,-547.36328125,-763.18359375
216.796875,159.1796875,-561.5234375,208.49609375
-1000.0,-1000.0,-639.16015625,-1000.0
-266.6015625,-752.44140625,-701.66015625,-275.390625
-806.15234375,822.75390625,-663.57421875,-817.3828125
308.59375,413.57421875,-573.2421875,546.38671875
-1000.0,-1000.0,-627.44140625,-1000.0
-587.40234375,-1000.0,-767.08984375,-586.9140625
-985.3515625,218.75,-713.8671875,952.63671875
761.71875,799.31640625,-549.31640625,-945.80078125
-823.2421875,-662.59765625,-598.14453125,-390.625
-1000.0,-1000.0,-752.9296875,-1000.0
382.32421875,-150.87890625,-703.61328125,382.32421875
-817.87109375,-933.59375,-476.5625,-774.4140625
-87.890625,-104.4921875,-472.16796875,160.64453125
-1000.0,-1000.0,-744.62890625,-1000.0
-207.03125,-417.96875,-764.6484375,-223.14453125
-807.6171875,-917.96875,-531.25,-784.66796875
230.95703125,229.4921875,-525.390625,223.6328125
-1000.0,-1000.0,-738.76953125,-1000.0
-276.3671875,-860.83984375,-768.06640625,-269.04296875
-812.5,691.40625,-620.1171875,-839.35546875
418.9453125,517.08984375,-602.05078125,664.0625
-1000.0,-967.28515625,-680.17578125,-966.796875
-715.33203125,-1000.0,-757.32421875,-729.98046875
879.8828125,71.2890625,-571.2890625,832.03125
928.22265625,911.1328125,-411.1328125,-869.140625
-572.75390625,-489.74609375,-634.765625,-191.40625
-1000.0,-1000.0,-760.25390625,-1000.0
152.34375,-218.26171875,-686.03515625,158.203125
-841.796875,-895.99609375,-592.28515625,-809.5703125
-51.7578125,33.203125,-604.4921875,104.00390625
-1000.0,-1000.0,-669.921875,-1000.0
-244.140625,-523.4375,-710.44921875,-271.97265625
-813.96484375,-975.5859375,-635.25390625,-800.29296875
238.76953125,298.828125,-597.65625,338.8671875
-1000.0,-1000.0,-639.16015625,-1000.0
-377.9296875,-953.61328125,-709.9609375,-393.06640625
-857.421875,547.8515625,-662.59765625,-909.66796875
557.12890625,655.2734375,-584.9609375,819.3359375
-1000.0,-849.609375,-632.32421875,-766.6015625
-844.7265625,-1000.0,-737.3046875,-894.53125
706.0546875,-14.16015625,-717.7734375,651.85546875
-923.828125,-991.2109375,-566.40625,-820.3125
-346.6796875,-309.5703125,-599.609375,-59.08203125
-1000.0,-1000.0,-755.37109375,-1000.0
15.13671875,-273.4375,-730.46875,-0.9765625
-779.78515625,-889.6484375,-566.89453125,-759.27734375
155.76171875,99.12109375,-458.0078125,203.125
-1000.0,-1000.0,-597.65625,-1000.0
-257.32421875,-677.734375,-789.0625,-275.390625
-808.59375,893.5546875,-643.5546875,-808.10546875
240.72265625,341.796875,-460.9375,479.00390625
-1000.0,-1000.0,-595.21484375,-1000.0
-507.8125,-1000.0,-801.7578125,-493.1640625
-933.10546875,326.171875,-641.11328125,-973.14453125
676.26953125,754.8828125,-525.87890625,950.1953125
-919.921875,-734.375,-660.15625,-546.875
-994.62890625,-1000.0,-781.73828125,-1000.0
512.6953125,-83.0078125,-695.3125,471.6796875
-890.13671875,-981.4453125,-525.87890625,-838.37890625
-257.32421875,-221.6796875,-571.77734375,-15.625
-1000.0,-1000.0,-728.02734375,-1000.0
-95.703125,-335.9375,-686.03515625,-128.90625
-788.57421875,-883.7890625,-482.421875,-772.94921875
216.30859375,182.12890625,-567.3828125,213.8671875
-1000.0,-1000.0,-724.12109375,-1000.0
-268.06640625,-807.6171875,-747.55859375,-274.4140625
-807.12890625,762.20703125,-637.20703125,-820.3125
324.21875,429.19921875,-604.4921875,570.3125
-1000.0,-1000.0,-697.75390625,-1000.0
-622.55859375,-1000.0,-752.9296875,-593.75
979.4921875,139.16015625,-651.3671875,944.3359375
817.87109375,827.1484375,-529.78515625,-928.22265625
-730.95703125,-619.140625,-596.19140625,-313.4765625
-1000.0,-1000.0,-677.734375,-1000.0
262.20703125,-165.52734375,-640.625,250.9765625
-793.9453125,-887.20703125,-583.0078125,-759.765625
-39.0625,5.859375,-578.61328125,187.5
-1000.0,-1000.0,-676.7578125,-1000.0
-203.61328125,-391.11328125,-768.5546875,-268.5546875
-801.7578125,-885.7421875,-633.7890625,-794.43359375
228.515625,266.6015625,-559.5703125,272.4609375
-1000.0,-1000.0,-681.640625,-1000.0
-271.97265625,-854.00390625,-762.6953125,-305.17578125
-813.4765625,709.47265625,-655.2734375,-859.375
464.35546875,548.33984375,-501.953125,717.28515625
-1000.0,-936.03515625,-566.40625,-908.69140625
-762.20703125,-1000.0,-807.12890625,-764.16015625
833.49609375,41.50390625,-701.171875,802.734375
956.54296875,911.1328125,-544.43359375,-858.3984375
-532.2265625,-479.00390625,-625.0,-164.0625
-1000.0,-1000.0,-754.39453125,-1000.0
83.0078125,-235.3515625,-724.12109375,105.95703125
-785.64453125,-896.484375,-528.80859375,-754.39453125
66.40625,53.22265625,-544.921875,194.82421875
-1000.0,-1000.0,-705.078125,-1000.0
-246.58203125,-538.57421875,-770.01953125,-273.4375
-810.05859375,-983.88671875,-466.796875,-800.78125
238.76953125,333.49609375,-416.015625,385.7421875
-1000.0,-1000.0,-755.37109375,-1000.0
-389.6484375,-959.9609375,-760.25390625,-432.6171875
-865.72265625,530.2734375,-599.609375,-930.17578125
593.75,717.7734375,-587.890625,857.421875
-1000.0,-782.71484375,-690.4296875,-720.703125
-879.39453125,-1000.0,-749.51171875,-916.015625
660.15625,-36.62109375,-663.0859375,628.90625
-896.97265625,-977.5390625,-543.45703125,-813.4765625
-292.48046875,-272.4609375,-591.30859375,-40.0390625
-1000.0,-1000.0,-699.70703125,-1000.0
-45.8984375,-300.29296875,-667.96875,-11.23046875
-785.64453125,-890.13671875,-603.02734375,-758.7890625
189.453125,126.46484375,-604.4921875,203.61328125
-1000.0,-1000.0,-700.1953125,-1000.0
-261.23046875,-706.54296875,-769.53125,-275.87890625
-806.640625,868.1640625,-655.2734375,-812.5
261.71875,385.7421875,-579.58984375,514.6484375
-1000.0,-1000.0,-670.8984375,-1000.0
-517.08984375,-1000.0,-779.296875,-535.15625
-947.75390625,318.359375,-674.31640625,998.046875
727.05078125,805.6640625,-534.1796875,992.1875
-858.88671875,-675.78125,-543.9453125,-479.4921875
-1000.0,-1000.0,-678.22265625,-1000.0
457.03125,-115.72265625,-713.8671875,390.13671875
-824.70703125,-910.15625,-583.0078125,-773.4375
-141.6015625,-94.23828125,-540.52734375,101.07421875
-1000.0,-1000.0,-695.3125,-1000.0
-125.48828125,-353.02734375,-783.203125,-151.3671875
-790.0390625,-882.32421875,-576.171875,-772.94921875
220.21484375,205.078125,-543.45703125,215.8203125
-1000.0,-1000.0,-737.79296875,-1000.0
-270.01953125,-810.05859375,-801.7578125,-273.92578125
-808.10546875,760.25390625,-531.73828125,-825.68359375
382.32421875,474.609375,-438.4765625,601.07421875
-1000.0,-1000.0,-711.9140625,-1000.0
-626.953125,-1000.0,-782.71484375,-646.97265625
970.21484375,146.484375,-659.1796875,904.296875
869.140625,903.3203125,-550.29296875,-892.578125
-660.64453125,-526.85546875,-618.65234375,-245.1171875
-1000.0,-1000.0,-757.8125,-1000.0
253.90625,-173.33984375,-688.4765625,197.265625
-787.59765625,-874.0234375,-574.70703125,-754.39453125
7.32421875,44.921875,-612.3046875,187.98828125
-1000.0,-1000.0,-736.328125,-1000.0
-239.2578125,-442.87109375,-739.74609375,-260.7421875
-810.05859375,-914.0625,-550.78125,-791.9921875
235.83984375,270.01953125,-545.41015625,293.45703125
-1000.0,-1000.0,-715.8203125,-1000.0
-329.58984375,-928.7109375,-697.75390625,-318.359375
-834.47265625,599.12109375,-584.9609375,-866.69921875
490.72265625,578.61328125,-613.28125,741.2109375
-1000.0,-919.43359375,-658.69140625,-871.58203125
-771.484375,-1000.0,-728.515625,-813.4765625
806.15234375,20.99609375,-677.24609375,747.0703125
-993.65234375,975.5859375,-582.51953125,-843.75
-467.28515625,-383.30078125,-591.796875,-121.09375
-1000.0,-1000.0,-667.96875,-1000.0
104.98046875,-229.98046875,-720.21484375,52.734375
-773.4375,-863.28125,-604.4921875,-756.8359375
136.23046875,127.9296875,-550.78125,198.73046875
-1000.0,-1000.0,-674.31640625,-1000.0
-256.8359375,-534.1796875,-777.34375,-273.92578125
-806.640625,-968.75,-585.44921875,-801.7578125
238.76953125,349.609375,-564.453125,409.66796875
-1000.0,-1000.0,-725.09765625,-1000.0
-434.08203125,-1000.0,-792.48046875,-457.03125
-883.7890625,479.4921875,-647.4609375,-904.78515625
598.14453125,654.296875,-521.484375,787.59765625
-988.28125,-868.65234375,-614.2578125,-843.26171875
-942.87109375,-1000.0,-746.58203125,-942.87109375
565.4296875,-68.359375,-705.078125,570.3125
-873.53515625,-999.51171875,-413.0859375,-806.640625
-270.5078125,-287.109375,-449.21875,23.4375
-1000.0,-1000.0,-781.25,-1000.0
-59.08203125,-307.12890625,-746.58203125,-78.61328125
-785.64453125,-879.39453125,-451.171875,-765.13671875
212.890625,175.78125,-497.0703125,209.47265625
-1000.0,-1000.0,-757.32421875,-1000.0
-268.06640625,-680.17578125,-756.8359375,-275.390625
-804.19921875,903.80859375,-585.9375,-813.4765625
320.80078125,439.453125,-541.9921875,529.78515625
-1000.0,-1000.0,-698.2421875,-1000.0
-531.25,-1000.0,-747.0703125,-540.52734375
-960.9375,297.36328125,-574.21875,990.72265625
781.73828125,874.51171875,-545.8984375,-991.69921875
-780.2734375,-591.30859375,-660.15625,-432.6171875
-1000.0,-1000.0,-750.48828125,-1000.0
394.04296875,-129.39453125,-704.58984375,325.68359375
-814.94140625,-910.64453125,-596.6796875,-768.5546875
-104.4921875,-78.125,-611.81640625,138.18359375
-1000.0,-1000.0,-731.4453125,-1000.0
-187.98828125,-394.04296875,-766.6015625,-210.44921875
-803.22265625,-905.2734375,-582.03125,-783.69140625
228.02734375,204.1015625,-554.19921875,222.65625
-1000.0,-1000.0,-645.5078125,-1000.0
-270.01953125,-823.2421875,-724.12109375,-272.4609375
-809.5703125,735.3515625,-660.64453125,-827.63671875
421.38671875,528.3203125,-564.453125,617.1875
-1000.0,-973.6328125,-630.37109375,-1000.0
-629.8828125,-1000.0,-747.55859375,-678.22265625
948.73046875,146.484375,-705.56640625,875.0
941.89453125,975.5859375,-520.99609375,-881.34765625
-546.38671875,-425.78125,-561.5234375,-207.51953125
-1000.0,-1000.0,-766.11328125,-1000.0
221.6796875,-177.734375,-722.16796875,150.390625
-779.296875,-870.1171875,-476.5625,-753.41796875
39.0625,54.6875,-463.37890625,191.40625
-1000.0,-1000.0,-757.8125,-1000.0
-245.60546875,-476.07421875,-791.50390625,-271.97265625
-809.5703125,-934.08203125,-585.9375,-796.38671875
237.3046875,273.92578125,-582.51953125,334.47265625
-1000.0,-1000.0,-744.62890625,-1000.0
-354.4921875,-946.2890625,-765.625,-371.58203125
-844.23828125,560.546875,-604.00390625,-895.5078125
517.08984375,612.3046875,-558.10546875,796.38671875
-1000.0,-889.6484375,-649.90234375,-798.33984375
-802.24609375,-1000.0,-769.53125,-869.62890625
739.2578125,-9.765625,-597.16796875,686.03515625
-913.57421875,-956.54296875,-396.97265625,-829.58984375
-330.078125,-256.8359375,-612.79296875,-96.6796875
-1000.0,-1000.0,-767.578125,-1000.0
66.89453125,-243.1640625,-658.203125,35.15625
-769.53125,-850.09765625,-543.9453125,-756.8359375
180.6640625,171.38671875,-626.46484375,200.1953125
-1000.0,-1000.0,-716.796875,-1000.0
-262.20703125,-564.453125,-732.91015625,-275.390625
-805.6640625,-985.3515625,-625.0,-806.640625
239.2578125,359.375,-598.14453125,459.47265625
-1000.0,-1000.0,-648.4375,-1000.0
-477.5390625,-1000.0,-692.87109375,-496.58203125
-905.2734375,397.94921875,-655.76171875,-975.5859375
617.67578125,714.35546875,-593.75,944.3359375
-971.19140625,-776.3671875,-611.81640625,-568.359375
-980.46875,-1000.0,-696.77734375,-1000.0
492.67578125,-100.09765625,-719.7265625,479.98046875
-837.40234375,-944.3359375,-578.125,-786.1328125
-190.91796875,-178.22265625,-603.515625,52.24609375
-1000.0,-1000.0,-747.0703125,-1000.0
-74.70703125,-309.08203125,-750.0,-102.05078125
-783.203125,-867.67578125,-578.61328125,-767.08984375
214.35546875,205.078125,-555.17578125,211.42578125
-1000.0,-1000.0,-701.66015625,-1000.0
-270.5078125,-673.828125,-755.37109375,-274.90234375
-805.6640625,917.48046875,-630.37109375,-820.80078125
364.2578125,452.63671875,-398.92578125,573.73046875
-1000.0,-1000.0,-532.2265625,-1000.0
-554.19921875,-1000.0,-822.75390625,-606.93359375
-973.14453125,274.4140625,-646.484375,940.91796875
807.12890625,876.46484375,-474.12109375,-935.05859375
-726.07421875,-579.58984375,-611.81640625,-336.42578125
-1000.0,-1000.0,-796.38671875,-1000.0
299.8046875,-152.34375,-696.77734375,267.08984375
-802.734375,-908.69140625,-411.62109375,-760.7421875
-70.80078125,-56.15234375,-522.94921875,171.38671875
-1000.0,-1000.0,-779.78515625,-1000.0
-208.984375,-416.015625,-707.03125,-234.375
-806.15234375,-909.66796875,-529.78515625,-786.62109375
229.98046875,258.7890625,-598.6328125,231.93359375
-1000.0,-1000.0,-725.5859375,-1000.0
-271.484375,-811.03515625,-746.58203125,-275.390625
-813.96484375,751.46484375,-611.328125,-843.26171875
483.88671875,601.5625,-579.58984375,675.29296875
-1000.0,-909.1796875,-688.4765625,-951.171875
-650.87890625,-1000.0,-734.86328125,-749.51171875
938.4765625,129.39453125,-646.97265625,810.05859375
968.26171875,995.60546875,-527.83203125,-862.3046875
-490.72265625,-384.765625,-604.00390625,-170.8984375
-1000.0,-1000.0,-708.984375,-1000.0
152.83203125,-197.75390625,-674.8046875,107.421875
-777.83203125,-871.09375,-594.7265625,-754.39453125
62.01171875,70.3125,-566.89453125,194.3359375
-1000.0,-1000.0,-706.0546875,-1000.0
-247.55859375,-519.04296875,-781.73828125,-272.94921875
-809.08203125,-965.33203125,-634.765625,-798.828125
237.79296875,311.5234375,-566.40625,365.234375
-1000.0,-1000.0,-666.50390625,-1000.0
-374.0234375,-943.84765625,-753.90625,-397.4609375
-859.86328125,554.6875,-648.92578125,-916.9921875
590.33203125,712.40234375,-487.3046875,850.09765625
-1000.0,-803.7109375,-529.296875,-717.7734375
-805.6640625,-1000.0,-772.94921875,-923.828125
740.72265625,6.8359375,-733.88671875,621.58203125
-885.25390625,-917.96875,-478.515625,-814.94140625
-265.625,-185.546875,-543.45703125,-50.29296875
-1000.0,-1000.0,-793.45703125,-1000.0
42.96875,-250.0,-715.8203125,-20.99609375
-769.53125,-850.09765625,-557.12890625,-761.23046875
191.40625,162.109375,-589.35546875,204.58984375
-1000.0,-1000.0,-715.33203125,-1000.0
-263.671875,-655.76171875,-781.25,-275.390625
-806.15234375,929.6875,-479.98046875,-809.5703125
248.53515625,370.1171875,-413.0859375,486.328125
-1000.0,-1000.0,-735.83984375,-1000.0
-518.5546875,-1000.0,-791.50390625,-510.7421875
-945.80078125,303.7109375,-551.7578125,-985.83984375
709.9609375,795.8984375,-482.421875,966.796875
-884.765625,-685.546875,-704.1015625,-524.90234375
-1000.0,-1000.0,-746.58203125,-1000.0
522.94921875,-68.359375,-658.203125,484.86328125
-925.29296875,-989.74609375,-573.2421875,-886.23046875
-307.6171875,-227.05078125,-595.703125,-107.91015625
-1000.0,-1000.0,-698.2421875,-1000.0
-71.77734375,-302.734375,-692.87109375,-131.8359375
-783.69140625,-856.93359375,-619.140625,-776.85546875
212.890625,236.328125,-605.95703125,214.84375
-1000.0,-1000.0,-714.84375,-1000.0
-271.484375,-711.42578125,-775.87890625,-273.92578125
-808.10546875,883.30078125,-635.25390625,-822.75390625
388.671875,480.46875,-570.3125,584.47265625
-1000.0,-987.3046875,-658.203125,-1000.0
-622.0703125,-1000.0,-768.5546875,-623.046875
984.86328125,170.8984375,-682.12890625,922.8515625
834.47265625,856.93359375,-540.52734375,-909.1796875
-697.265625,-586.9140625,-543.45703125,-284.1796875
-1000.0,-1000.0,-687.5,-1000.0
241.69921875,-173.33984375,-738.28125,230.46875
-791.015625,-889.16015625,-567.87109375,-757.32421875
-31.73828125,2.9296875,-566.40625,187.98828125
-1000.0,-1000.0,-754.39453125,-1000.0
-204.58984375,-386.23046875,-787.59765625,-269.53125
-801.26953125,-882.32421875,-555.6640625,-795.41015625
228.515625,304.19921875,-510.7421875,290.52734375
-1000.0,-1000.0,-731.93359375,-1000.0
-272.4609375,-784.66796875,-793.45703125,-333.49609375
-816.89453125,784.66796875,-564.453125,-869.62890625
515.625,648.92578125,-334.9609375,731.93359375
-1000.0,-851.5625,-590.33203125,-893.06640625
-712.890625,-1000.0,-826.66015625,-786.1328125
879.8828125,90.8203125,-629.39453125,778.3203125
993.65234375,-995.60546875,-501.953125,-851.07421875
-458.984375,-354.4921875,-648.4375,-149.4140625
-1000.0,-1000.0,-769.04296875,-1000.0
98.14453125,-236.81640625,-716.796875,90.33203125
-764.16015625,-869.140625,-591.30859375,-739.2578125
44.921875,52.24609375,-624.51171875,158.69140625
-1000.0,-1000.0,-733.3984375,-1000.0
-67.3828125,-414.55078125,-719.7265625,-93.26171875
-827.1484375,990.234375,-559.08203125,-819.82421875
236.81640625,341.796875,-531.25,411.62109375
-1000.0,-1000.0,-702.63671875,-1000.0
-391.11328125,-954.1015625,-698.2421875,-433.59375
-875.0,525.390625,-573.73046875,-932.12890625
642.578125,793.45703125,-593.26171875,874.0234375
-980.46875,-717.28515625,-645.99609375,-676.7578125
-846.19140625,-1000.0,-711.42578125,-969.23828125
694.3359375,-9.27734375,-688.96484375,557.6171875
-862.3046875,-898.92578125,-576.66015625,-802.24609375
-206.54296875,-132.8125,-584.9609375,-9.765625
-1000.0,-1000.0,-708.984375,-1000.0
-3.90625,-280.76171875,-742.1875,-52.734375
-771.484375,-858.3984375,-614.74609375,-763.18359375
206.0546875,167.48046875,-533.69140625,207.03125
-1000.0,-1000.0,-644.04296875,-1000.0
-267.08984375,-699.21875,-798.33984375,-275.87890625
-805.17578125,886.71875,-644.04296875,-813.96484375
282.71484375,395.01953125,-531.73828125,529.78515625
-1000.0,-1000.0,-662.59765625,-1000.0
-527.34375,-1000.0,-791.9921875,-552.24609375
-958.984375,307.6171875,-657.2265625,981.93359375
763.671875,866.2109375,-535.15625,-983.3984375
-830.56640625,-613.76953125,-614.2578125,-420.8984375
-1000.0,-1000.0,-726.07421875,-1000.0
477.5390625,-108.3984375,-709.47265625,323.2421875
-809.08203125,-862.3046875,-404.296875,-768.06640625
-64.94140625,18.5546875,-424.8046875,119.62890625
-1000.0,-1000.0,-784.66796875,-1000.0
-99.12109375,-321.77734375,-742.67578125,-194.3359375
-777.83203125,-851.5625,-430.17578125,-781.73828125
214.35546875,251.46484375,-472.16796875,221.19140625
-1000.0,-1000.0,-778.3203125,-1000.0
-271.97265625,-774.90234375,-753.90625,-272.94921875
-809.5703125,811.5234375,-579.1015625,-827.63671875
416.50390625,517.08984375,-543.9453125,618.1640625
-1000.0,-969.7265625,-689.94140625,-1000.0
-633.30078125,-1000.0,-742.67578125,-650.87890625
956.54296875,136.71875,-604.00390625,901.85546875
916.50390625,953.125,-582.03125,-890.13671875
-595.703125,-459.9609375,-637.6953125,-213.37890625
-1000.0,-1000.0,-736.328125,-1000.0
249.51171875,-171.38671875,-725.09765625,144.53125
-779.296875,-850.09765625,-597.65625,-754.8828125
49.8046875,100.5859375,-584.47265625,191.89453125
-1000.0,-1000.0,-710.9375,-1000.0
-232.421875,-410.64453125,-755.859375,-270.99609375
-803.22265625,-884.27734375,-558.59375,-795.8984375
231.93359375,305.6640625,-542.48046875,317.87109375
-1000.0,-1000.0,-658.203125,-1000.0
-315.91796875,-883.30078125,-724.609375,-350.09765625
-832.03125,665.52734375,-675.78125,-882.32421875
518.06640625,633.7890625,-558.59375,768.5546875
-1000.0,-867.1875,-622.55859375,-827.63671875
-781.25,-1000.0,-786.1328125,-868.65234375
789.0625,22.94921875,-719.23828125,679.6875
-959.47265625,997.0703125,-548.828125,-828.125
-402.83203125,-348.14453125,-598.14453125,-88.8671875
-1000.0,-1000.0,-752.44140625,-1000.0
66.89453125,-240.72265625,-724.12109375,32.2265625
-774.4140625,-866.69921875,-490.72265625,-756.8359375
157.2265625,126.953125,-447.265625,200.1953125
-1000.0,-1000.0,-734.375,-1000.0
-259.765625,-533.203125,-812.01171875,-274.90234375
-804.19921875,-968.75,-526.85546875,-803.7109375
252.44140625,392.08984375,-477.5390625,434.5703125
-1000.0,-1000.0,-737.79296875,-1000.0
-411.62109375,-971.19140625,-780.76171875,-459.47265625
-891.6015625,507.8125,-628.90625,-954.58984375
682.6171875,813.4765625,-558.10546875,918.45703125
-919.43359375,-679.19921875,-643.5546875,-604.4921875
-915.52734375,-1000.0,-762.6953125,-1000.0
612.79296875,-65.4296875,-586.42578125,505.37109375
-849.12109375,-915.52734375,-418.9453125,-790.52734375
-187.5,-136.23046875,-626.953125,40.52734375
-1000.0,-1000.0,-754.8828125,-1000.0
-56.15234375,-308.59375,-664.55078125,-90.8203125
-779.296875,-864.2578125,-539.55078125,-765.625
211.9140625,205.078125,-620.1171875,210.44921875
-1000.0,-1000.0,-717.7734375,-1000.0
-271.484375,-643.5546875,-727.05078125,-274.90234375
-804.6875,938.96484375,-629.39453125,-815.91796875
381.34765625,500.0,-591.796875,538.0859375
-1000.0,-1000.0,-641.11328125,-1000.0
-506.8359375,-1000.0,-704.1015625,-583.49609375
-965.8203125,370.60546875,-675.78125,955.078125
865.72265625,987.3046875,-561.5234375,-955.078125
-679.6875,-447.265625,-627.9296875,-373.53515625
-1000.0,-1000.0,-777.83203125,-1000.0
453.125,-117.67578125,-718.75,289.55078125
-806.15234375,-857.421875,-533.203125,-763.671875
-40.0390625,37.59765625,-570.80078125,167.96875
-1000.0,-1000.0,-766.6015625,-1000.0
-144.04296875,-340.8203125,-765.13671875,-199.70703125
-900.390625,-984.86328125,-590.33203125,-894.04296875
43.9453125,44.921875,-548.33984375,48.33984375
-1000.0,-1000.0,-706.0546875,-1000.0
-269.53125,-838.37890625,-754.8828125,-288.0859375
-816.89453125,714.84375,-636.23046875,-856.93359375
442.87109375,530.76171875,-424.31640625,687.98828125
-1000.0,-969.7265625,-526.3671875,-945.80078125
-640.13671875,-1000.0,-831.0546875,-734.86328125
933.10546875,116.69921875,-671.875,831.0546875
979.00390625,-981.93359375,-480.95703125,-867.67578125
-493.65234375,-353.515625,-621.09375,-189.453125
-1000.0,-1000.0,-790.52734375,-1000.0
218.75,-184.5703125,-672.8515625,136.71875
-772.94921875,-844.23828125,-440.4296875,-753.41796875
77.63671875,127.9296875,-551.26953125,192.3828125
-1000.0,-1000.0,-782.2265625,-1000.0
-250.48828125,-474.609375,-715.33203125,-272.94921875
-807.12890625,-922.8515625,-522.94921875,-799.8046875
236.328125,311.5234375,-598.14453125,367.67578125
-1000.0,-1000.0,-732.91015625,-1000.0
-357.421875,-940.4296875,-766.11328125,-411.1328125
-850.09765625,571.77734375,-650.390625,-919.921875
562.98828125,667.96875,-579.58984375,845.21484375
-1000.0,-839.84375,-682.12890625,-760.7421875
-820.3125,-1000.0,-743.65234375,-851.07421875
716.796875,-15.13671875,-643.5546875,728.515625
-880.859375,-916.9921875,-527.34375,-829.58984375
-279.296875,-184.5703125,-600.5859375,-63.4765625
-1000.0,-1000.0,-680.17578125,-1000.0
91.30859375,-224.609375,-658.69140625,-2.44140625
-762.6953125,-832.03125,-610.3515625,-759.765625
196.77734375,206.54296875,-580.56640625,203.125
-1000.0,-1000.0,-671.875,-1000.0
-269.04296875,-519.04296875,-765.625,-275.390625
-801.7578125,-942.3828125,-643.5546875,-810.05859375
297.36328125,410.15625,-550.29296875,490.72265625
-1000.0,-1000.0,-663.57421875,-1000.0
-454.58984375,-1000.0,-751.953125,-521.97265625
-907.71484375,446.2890625,-647.94921875,-997.0703125
703.61328125,799.8046875,-487.79296875,984.86328125
-879.39453125,-690.91796875,-554.19921875,-500.48828125
-982.421875,-1000.0,-790.52734375,-1000.0
513.18359375,-96.19140625,-708.49609375,434.08203125
-828.61328125,-899.4140625,-476.07421875,-778.80859375
-149.90234375,-81.54296875,-530.2734375,72.265625
-1000.0,-1000.0,-782.2265625,-1000.0
-73.2421875,-306.15234375,-732.421875,-127.9296875
-779.78515625,-853.515625,-544.921875,-770.01953125
213.37890625,246.09375,-587.890625,213.8671875
-1000.0,-1000.0,-712.40234375,-1000.0
-272.4609375,-655.2734375,-771.97265625,-274.4140625
-807.12890625,933.59375,-469.23828125,-822.75390625
418.45703125,541.9921875,-369.140625,585.44921875
-1000.0,-960.44921875,-728.515625,-1000.0
-572.265625,-1000.0,-778.3203125,-642.08984375
-949.21875,313.96484375,-604.98046875,956.0546875
760.7421875,863.76953125,-569.3359375,988.28125
-813.96484375,-624.0234375,-667.48046875,-466.796875
-1000.0,-1000.0,-724.609375,-1000.0
269.53125,-158.69140625,-671.38671875,245.1171875
-800.78125,-903.80859375,-575.1953125,-763.18359375
-42.96875,-30.2734375,-590.33203125,187.01171875
-1000.0,-1000.0,-688.96484375,-1000.0
-232.421875,-436.03515625,-703.61328125,-257.8125
-810.05859375,-919.43359375,-614.2578125,-792.48046875
232.421875,266.6015625,-604.00390625,273.92578125
-1000.0,-1000.0,-724.12109375,-1000.0
-271.484375,-827.1484375,-777.34375,-325.68359375
-816.40625,719.23828125,-656.25,-864.74609375
518.06640625,676.26953125,-558.59375,714.35546875
-1000.0,-862.3046875,-654.296875,-906.25
-639.16015625,-1000.0,-783.69140625,-797.8515625
914.0625,161.1328125,-673.33984375,762.6953125
-938.96484375,-899.90234375,-492.1875,-851.5625
-341.30859375,-208.0078125,-496.09375,-146.484375
-1000.0,-1000.0,-677.734375,-1000.0
196.77734375,-183.59375,-724.609375,53.7109375
-762.6953125,-829.1015625,-566.89453125,-758.7890625
143.5546875,153.80859375,-493.65234375,199.21875
-1000.0,-1000.0,-677.734375,-1000.0
-259.27734375,-491.69921875,-801.26953125,-273.92578125
-804.6875,-929.19921875,-572.75390625,-801.26953125
237.79296875,332.51953125,-523.4375,401.3671875
-1000.0,-1000.0,-726.5625,-1000.0
-416.9921875,-985.3515625,-804.19921875,-423.828125
-878.41796875,490.72265625,-583.0078125,-929.19921875
604.98046875,727.05078125,-462.40234375,871.58203125
-1000.0,-782.71484375,-666.50390625,-691.40625
-861.81640625,-1000.0,-788.57421875,-936.03515625
653.3203125,-38.0859375,-621.09375,601.07421875
-847.65625,-881.8359375,-437.5,-807.12890625
-196.77734375,-90.8203125,-618.1640625,5.859375
-1000.0,-1000.0,-774.4140625,-1000.0
57.6171875,-233.88671875,-709.47265625,-66.40625
-762.20703125,-826.171875,-576.66015625,-764.16015625
199.21875,229.4921875,-605.95703125,208.49609375
-1000.0,-1000.0,-749.0234375,-1000.0
-270.5078125,-557.12890625,-734.375,-275.390625
-804.19921875,-968.26171875,-563.96484375,-812.5
324.70703125,431.15234375,-549.31640625,519.04296875
-1000.0,-1000.0,-712.890625,-1000.0
-531.73828125,-1000.0,-719.23828125,-529.78515625
-947.265625,322.75390625,-603.515625,997.55859375
735.3515625,815.4296875,-577.63671875,-999.0234375
-835.44921875,-661.1328125,-623.046875,-461.9140625
-1000.0,-1000.0,-716.30859375,-1000.0
399.90234375,-129.39453125,-719.23828125,387.20703125
-812.01171875,-903.3203125,-604.00390625,-774.4140625
-109.375,-66.89453125,-587.40234375,126.953125
-1000.0,-1000.0,-705.56640625,-1000.0
-127.44140625,-339.84375,-744.140625,-203.125
-788.0859375,-868.65234375,-614.74609375,-782.71484375
219.23828125,248.046875,-540.52734375,222.16796875
-1000.0,-1000.0,-662.59765625,-1000.0
-274.4140625,-699.21875,-793.9453125,-274.4140625
-804.19921875,881.34765625,-624.0234375,-819.82421875
446.2890625,584.47265625,-539.55078125,593.75
-1000.0,-929.6875,-678.7109375,-980.95703125
-508.30078125,-1000.0,-769.04296875,-563.96484375
964.84375,245.60546875,-650.87890625,892.08984375
941.89453125,-988.28125,-477.05078125,-893.06640625
-533.203125,-385.25390625,-555.17578125,-230.95703125
-1000.0,-1000.0,-745.1171875,-1000.0
243.1640625,-166.50390625,-726.07421875,161.1328125
-779.78515625,-859.375,-414.0625,-754.39453125
40.52734375,69.3359375,-415.52734375,190.91796875
-1000.0,-1000.0,-787.109375,-1000.0
-246.09375,-440.91796875,-761.23046875,-270.99609375
-807.12890625,-908.203125,-523.92578125,-796.38671875
234.375,306.640625,-560.05859375,319.3359375
-1000.0,-1000.0,-763.671875,-1000.0
-307.6171875,-859.86328125,-761.71875,-359.86328125
-834.9609375,675.78125,-602.5390625,-882.8125
571.2890625,716.796875,-536.62109375,762.20703125
-1000.0,-809.5703125,-647.4609375,-843.26171875
-702.63671875,-1000.0,-708.49609375,-855.95703125
851.07421875,87.890625,-572.75390625,695.80078125
-898.4375,-877.44140625,-544.43359375,-832.51953125
-276.3671875,-137.20703125,-650.390625,-99.12109375
-1000.0,-1000.0,-737.3046875,-1000.0
147.94921875,-197.75390625,-692.3828125,31.25
-758.30078125,-821.77734375,-589.84375,-757.8125
191.89453125,195.80078125,-597.65625,200.68359375
-1000.0,-1000.0,-734.375,-1000.0
-265.625,-501.46484375,-764.6484375,-274.90234375
-802.734375,-920.8984375,-562.01171875,-804.6875
237.79296875,358.3984375,-544.43359375,445.80078125
-1000.0,-1000.0,-641.6015625,-1000.0
-447.75390625,-1000.0,-715.8203125,-460.44921875
-892.578125,446.2890625,-670.8984375,-960.44921875
617.67578125,732.421875,-567.3828125,938.4765625
-983.88671875,-766.6015625,-608.3984375,-564.453125
-930.6640625,-1000.0,-745.1171875,-1000.0
562.5,-77.1484375,-729.00390625,476.07421875
-832.03125,-917.96875,-549.8046875,-781.25
-204.1015625,-139.16015625,-595.21484375,21.97265625
-1000.0,-1000.0,-762.6953125,-1000.0
77.1484375,-273.92578125,-732.421875,-24.4140625
-782.2265625,-844.23828125,-482.421875,-780.76171875
206.54296875,234.86328125,-444.82421875,213.37890625
-1000.0,-1000.0,-755.859375,-1000.0
-272.94921875,-578.61328125,-799.31640625,-274.4140625
-805.17578125,-998.046875,-558.59375,-816.89453125
401.85546875,525.87890625,-518.5546875,543.9453125
-1000.0,-983.88671875,-702.1484375,-1000.0
-518.06640625,-1000.0,-770.01953125,-584.47265625
-961.42578125,385.25390625,-608.3984375,951.171875
844.23828125,954.1015625,-531.73828125,-944.3359375
-690.91796875,-487.3046875,-664.55078125,-348.6328125
-1000.0,-1000.0,-750.0,-1000.0
393.5546875,-133.7890625,-672.36328125,271.97265625
-805.6640625,-884.27734375,-533.69140625,-760.7421875
-62.01171875,-16.11328125,-608.88671875,168.9453125
-1000.0,-1000.0,-762.20703125,-1000.0
-198.73046875,-396.97265625,-672.8515625,-221.6796875
-802.24609375,-892.578125,-536.1328125,-783.203125
228.515625,259.765625,-630.37109375,229.4921875
-1000.0,-1000.0,-729.00390625,-1000.0
-272.4609375,-753.90625,-738.28125,-269.53125
-813.96484375,806.640625,-616.2109375,-839.84375
510.25390625,675.78125,-555.17578125,666.50390625
-1000.0,-882.32421875,-626.953125,-955.56640625
-571.2890625,-1000.0,-683.10546875,-758.7890625
955.56640625,287.109375,-667.48046875,800.78125
-953.125,-882.32421875,-561.5234375,-863.76953125
-368.1640625,-193.84765625,-596.6796875,-181.640625
-1000.0,-1000.0,-725.5859375,-1000.0
296.875,-158.203125,-728.02734375,104.00390625
-769.04296875,-819.82421875,-562.98828125,-755.37109375
127.44140625,160.64453125,-587.890625,194.82421875
-1000.0,-1000.0,-763.671875,-1000.0
-257.8125,-448.2421875,-777.34375,-272.94921875
-803.7109375,-898.92578125,-599.609375,-797.8515625
235.83984375,313.4765625,-544.921875,371.58203125
-1000.0,-1000.0,-694.82421875,-1000.0
-370.1171875,-948.73046875,-755.859375,-376.46484375
-853.02734375,573.2421875,-637.6953125,-906.73828125
550.78125,626.953125,-398.4375,842.28515625
-1000.0,-873.046875,-504.39453125,-723.14453125
-860.3515625,-1000.0,-818.359375,-917.48046875
669.921875,-28.80859375,-687.98828125,630.37109375
-891.6015625,-951.66015625,-449.21875,-816.89453125
-307.12890625,-243.65234375,-561.03515625,-55.17578125
-1000.0,-1000.0,-801.26953125,-1000.0
58.59375,-237.79296875,-703.125,-16.11328125
-768.06640625,-839.84375,-500.9765625,-760.7421875
200.1953125,204.1015625,-561.03515625,204.58984375
-1000.0,-1000.0,-763.671875,-1000.0
-270.99609375,-487.3046875,-720.21484375,-274.90234375
-799.31640625,-927.734375,-479.00390625,-808.59375
330.56640625,479.4921875,-532.71484375,477.5390625
-1000.0,-1000.0,-737.3046875,-1000.0
-419.921875,-961.42578125,-746.58203125,-504.39453125
-898.92578125,537.109375,-625.0,-990.234375
738.76953125,892.08984375,-572.265625,982.91015625
-832.03125,-577.63671875,-656.25,-516.6015625
-986.328125,-1000.0,-761.23046875,-1000.0
527.83203125,-81.54296875,-676.7578125,489.74609375
-835.9375,-912.59765625,-536.1328125,-782.71484375
-157.2265625,-118.1640625,-590.8203125,88.8671875
-1000.0,-1000.0,-691.40625,-1000.0
-125.0,-340.8203125,-688.4765625,-116.2109375
-784.1796875,-874.0234375,-614.2578125,-758.30078125
201.171875,199.70703125,-588.37890625,192.87109375
-1000.0,-1000.0,-697.75390625,-1000.0
-183.59375,-644.53125,-753.90625,-186.5234375
-815.91796875,879.39453125,-627.9296875,-834.9609375
423.33984375,571.2890625,-539.0625,594.23828125
-1000.0,-989.74609375,-625.48828125,-1000.0
-483.88671875,-990.72265625,-738.28125,-634.765625
-992.67578125,409.66796875,-669.43359375,919.43359375
992.67578125,-903.80859375,-473.6328125,-912.59765625
-525.390625,-265.625,-499.0234375,-287.59765625
-965.8203125,-1000.0,-786.62109375,-1000.0
574.70703125,-56.640625,-707.03125,206.54296875
-798.33984375,-801.7578125,-490.234375,-756.8359375
65.4296875,163.0859375,-563.96484375,188.96484375
-1000.0,-1000.0,-783.69140625,-1000.0
-151.85546875,-350.09765625,-754.39453125,-270.01953125
-780.2734375,-845.21484375,-556.15234375,-795.41015625
220.703125,263.18359375,-566.89453125,299.31640625
-1000.0,-1000.0,-729.00390625,-1000.0
-329.58984375,-913.0859375,-797.8515625,-327.63671875
-830.078125,638.18359375,-508.30078125,-868.1640625
431.640625,512.6953125,-397.4609375,736.81640625
-1000.0,-965.33203125,-703.125,-884.27734375
-778.80859375,-1000.0,-793.45703125,-792.48046875
777.83203125,-0.9765625,-583.0078125,775.87890625
-983.88671875,995.1171875,-485.83984375,-853.02734375
-476.5625,-360.83984375,-667.48046875,-160.15625
-1000.0,-1000.0,-743.1640625,-1000.0
155.76171875,-193.359375,-691.40625,90.33203125
-748.53515625,-811.03515625,-565.91796875,-740.234375
152.34375,168.45703125,-576.171875,158.69140625
-1000.0,-1000.0,-690.91796875,-1000.0
-61.03515625,-199.70703125,-663.57421875,-93.26171875
-807.6171875,-877.9296875,-578.61328125,-820.3125
270.01953125,417.48046875,-588.8671875,404.296875
-1000.0,-1000.0,-698.73046875,-1000.0
-340.8203125,-898.4375,-749.51171875,-442.87109375
-840.8203125,668.45703125,-651.85546875,-942.3828125
582.51953125,706.0546875,-565.4296875,893.06640625
-979.4921875,-776.85546875,-655.2734375,-670.41015625
-944.3359375,-1000.0,-799.8046875,-931.640625
584.9609375,-54.6875,-715.33203125,605.95703125
-903.3203125,974.609375,-544.921875,-802.734375
-324.21875,-345.21484375,-529.78515625,20.99609375
-1000.0,-1000.0,-690.4296875,-1000.0
-56.15234375,-294.43359375,-770.5078125,-29.78515625
-786.62109375,-873.53515625,-586.9140625,-756.34765625
212.890625,189.453125,-546.875,203.61328125
-1000.0,-1000.0,-718.26171875,-1000.0
-272.4609375,-519.53125,-787.59765625,-275.87890625
-799.31640625,-966.30859375,-580.56640625,-812.98828125
404.296875,574.70703125,-476.5625,511.23046875
-1000.0,-999.51171875,-702.1484375,-1000.0
-367.1875,-881.8359375,-804.6875,-561.5234375
-906.25,609.375,-563.4765625,983.3984375
863.28125,-967.28515625,-388.18359375,995.1171875
-683.10546875,-361.328125,-618.1640625,-461.42578125
-939.94140625,-1000.0,-794.921875,-1000.0
614.2578125,-49.8046875,-674.31640625,312.5
-824.70703125,-838.37890625,-557.12890625,-769.04296875
-63.96484375,37.59765625,-629.39453125,117.1875
-1000.0,-1000.0,-763.18359375,-1000.0
-123.046875,-352.5390625,-726.5625,-193.84765625
-782.71484375,-867.1875,-545.8984375,-781.73828125
217.28515625,225.5859375,-567.87109375,221.19140625
-1000.0,-1000.0,-741.69921875,-1000.0
-272.4609375,-763.671875,-736.328125,-272.94921875
-809.08203125,810.05859375,-580.56640625,-826.66015625
441.40625,570.3125,-529.78515625,609.86328125
-1000.0,-962.890625,-694.3359375,-1000.0
-565.4296875,-1000.0,-708.49609375,-644.04296875
967.7734375,249.0234375,-573.2421875,908.203125
-999.51171875,-906.73828125,-551.7578125,-896.484375
-497.0703125,-259.765625,-626.953125,-229.4921875
-1000.0,-1000.0,-719.7265625,-1000.0
421.875,-122.55859375,-688.4765625,133.7890625
-766.11328125,-805.17578125,-578.125,-741.69921875
67.87109375,146.97265625,-592.7734375,156.25
-1000.0,-1000.0,-714.84375,-1000.0
-21.97265625,-289.0625,-714.84375,-89.84375
-807.6171875,-869.140625,-592.7734375,-812.98828125
225.5859375,289.0625,-529.296875,320.3125
-1000.0,-1000.0,-641.11328125,-1000.0
-340.8203125,-932.6171875,-801.7578125,-338.37890625
-837.890625,607.421875,-674.31640625,-880.37109375
496.58203125,567.87109375,-517.08984375,780.2734375
-1000.0,-922.8515625,-627.9296875,-833.984375
-811.03515625,-1000.0,-798.33984375,-800.78125
737.3046875,-9.765625,-684.08203125,765.13671875
-938.4765625,-982.421875,-535.64453125,-843.26171875
-393.06640625,-313.96484375,-597.65625,-83.984375
-1000.0,-1000.0,-738.28125,-1000.0
114.2578125,-212.40234375,-742.67578125,13.671875
-765.13671875,-833.49609375,-392.578125,-759.27734375
194.82421875,197.75390625,-382.8125,202.1484375
-1000.0,-1000.0,-782.71484375,-1000.0
-270.5078125,-418.9453125,-782.71484375,-273.92578125
-795.8984375,-883.30078125,-453.125,-803.7109375
311.03515625,462.890625,-428.7109375,424.31640625
-1000.0,-1000.0,-756.34765625,-1000.0
-340.33203125,-881.8359375,-759.27734375,-468.26171875
-867.67578125,645.01953125,-589.84375,-954.58984375
718.75,891.11328125,-522.4609375,904.78515625
-866.2109375,-577.63671875,-642.578125,-636.23046875
-902.83203125,-1000.0,-740.234375,-987.3046875
644.53125,-43.9453125,-628.90625,527.83203125
-848.14453125,-888.671875,-578.125,-792.96875
-177.24609375,-95.703125,-635.25390625,45.8984375
-1000.0,-1000.0,-754.39453125,-1000.0
-28.80859375,-289.0625,-729.98046875,-91.796875
-773.4375,-851.07421875,-602.5390625,-765.625
208.49609375,210.9375,-612.79296875,210.44921875
-1000.0,-1000.0,-730.95703125,-1000.0
-273.4375,-583.984375,-774.4140625,-274.90234375
-803.22265625,988.76953125,-584.47265625,-816.89453125
412.109375,558.59375,-498.046875,543.45703125
-1000.0,-997.55859375,-610.83984375,-1000.0
-439.453125,-950.1953125,-720.703125,-590.33203125
-952.63671875,500.0,-669.921875,953.61328125
924.8046875,-949.21875,-520.99609375,-957.51953125
-604.98046875,-344.23828125,-596.19140625,-377.9296875
-975.5859375,-1000.0,-777.34375,-1000.0
562.5,-71.77734375,-728.02734375,281.73828125
-807.6171875,-825.1953125,-509.765625,-763.671875
-5.37109375,89.35546875,-538.57421875,166.50390625
-1000.0,-1000.0,-752.9296875,-1000.0
-139.6484375,-347.16796875,-741.2109375,-235.83984375
-781.25,-855.95703125,-519.04296875,-787.109375
217.7734375,244.62890625,-407.71484375,251.46484375
-1000.0,-1000.0,-701.171875,-1000.0
-272.4609375,-798.828125,-830.078125,-277.34375
-812.01171875,775.390625,-566.40625,-843.75
460.9375,567.3828125,-492.1875,683.10546875
-1000.0,-941.40625,-713.37890625,-947.75390625
-636.71875,-1000.0,-780.76171875,-730.95703125
937.01171875,140.13671875,-658.203125,833.984375
984.375,-966.796875,-569.82421875,-867.67578125
-490.234375,-336.42578125,-629.8828125,-181.640625
-1000.0,-1000.0,-749.51171875,-1000.0
240.72265625,-176.26953125,-622.0703125,126.46484375
-768.5546875,-829.1015625,-401.3671875,-753.90625
126.953125,166.9921875,-559.08203125,192.87109375
-1000.0,-1000.0,-780.2734375,-1000.0
-242.1875,-410.64453125,-692.87109375,-271.97265625
-796.38671875,-876.953125,-528.80859375,-798.828125
229.4921875,365.234375,-609.375,347.16796875
-1000.0,-1000.0,-730.95703125,-1000.0
-304.19921875,-845.703125,-754.39453125,-409.66796875
-836.42578125,707.03125,-649.90234375,-922.8515625
593.75,755.859375,-562.5,844.7265625
-1000.0,-756.8359375,-618.1640625,-732.421875
-759.765625,-1000.0,-733.3984375,-915.52734375
795.8984375,50.29296875,-696.2890625,629.8828125
-887.20703125,-890.13671875,-570.80078125,-815.4296875
-260.25390625,-150.87890625,-574.21875,-51.7578125
-1000.0,-1000.0,-671.38671875,-1000.0
101.5625,-219.7265625,-722.65625,-9.27734375
-761.23046875,-827.1484375,-591.796875,-759.765625
195.3125,207.03125,-561.5234375,203.61328125
-1000.0,-1000.0,-738.28125,-1000.0
-270.5078125,-493.1640625,-790.52734375,-275.390625
-798.828125,-926.7578125,-598.14453125,-809.5703125
318.359375,451.66015625,-505.859375,488.28125
-1000.0,-1000.0,-667.96875,-1000.0
-398.92578125,-927.24609375,-770.99609375,-507.8125
-902.34375,565.91796875,-675.78125,-990.72265625
777.83203125,915.52734375,-367.67578125,982.91015625
-819.3359375,-561.03515625,-459.9609375,-494.140625
-895.99609375,-1000.0,-825.1953125,-1000.0
645.99609375,-31.25,-679.6875,420.41015625
-828.125,-838.8671875,-438.4765625,-776.85546875
-94.7265625,27.83203125,-551.7578125,72.75390625
-1000.0,-1000.0,-794.43359375,-1000.0
-10.25390625,-278.3203125,-704.58984375,-127.44140625
-763.671875,-831.0546875,-474.609375,-770.01953125
204.58984375,253.90625,-541.9921875,213.8671875
-1000.0,-1000.0,-783.69140625,-1000.0
-273.92578125,-642.578125,-734.86328125,-274.4140625
-807.12890625,948.2421875,-519.04296875,-822.75390625
417.48046875,543.45703125,-560.05859375,583.49609375
-1000.0,-967.7734375,-708.0078125,-1000.0
-550.29296875,-1000.0,-768.5546875,-627.44140625
-985.3515625,312.5,-667.96875,917.48046875
880.37109375,988.28125,-574.21875,-902.83203125
-651.85546875,-437.5,-636.23046875,-273.92578125
-1000.0,-1000.0,-742.67578125,-1000.0
375.48828125,-144.53125,-690.91796875,227.5390625
-789.55078125,-844.7265625,-535.15625,-756.8359375
11.71875,83.49609375,-571.77734375,187.98828125
-1000.0,-1000.0,-683.59375,-1000.0
-176.7578125,-356.4453125,-679.6875,-267.08984375
-789.0625,-859.375,-611.328125,-794.43359375
222.65625,311.03515625,-583.49609375,277.34375
-1000.0,-1000.0,-673.828125,-1000.0
-273.4375,-757.32421875,-750.0,-313.4765625
-818.84765625,812.98828125,-657.2265625,-864.74609375
544.921875,698.73046875,-535.15625,730.95703125
-1000.0,-830.078125,-641.11328125,-892.578125
-633.30078125,-1000.0,-767.08984375,-778.3203125
924.31640625,184.08203125,-661.1328125,788.57421875
-944.82421875,-908.69140625,-464.35546875,-854.98046875
-353.515625,-227.05078125,-549.31640625,-147.94921875
-1000.0,-1000.0,-787.59765625,-1000.0
222.16796875,-177.24609375,-752.44140625,72.265625
-762.20703125,-823.2421875,-453.125,-756.8359375
159.66796875,171.875,-404.296875,197.75390625
-1000.0,-1000.0,-773.4375,-1000.0
-262.20703125,-423.828125,-779.78515625,-273.92578125
-799.31640625,-883.30078125,-503.90625,-801.26953125
232.91015625,389.16015625,-487.79296875,401.3671875
-1000.0,-1000.0,-688.96484375,-1000.0
-328.125,-873.046875,-790.0390625,-429.6875
-862.79296875,645.01953125,-508.30078125,-929.6875
680.6640625,859.375,-365.72265625,866.69921875
-950.1953125,-643.5546875,-687.01171875,-697.265625
-775.390625,-1000.0,-799.31640625,-940.4296875
781.25,39.0625,-569.3359375,598.14453125
-859.86328125,-844.23828125,-445.80078125,-810.05859375
-175.29296875,-24.4140625,-658.203125,-17.578125
-1000.0,-1000.0,-759.27734375,-1000.0
113.76953125,-207.03125,-689.94140625,-46.38671875
-812.98828125,-874.51171875,-574.70703125,-822.75390625
106.93359375,136.71875,-587.890625,121.09375
-1000.0,-1000.0,-715.33203125,-1000.0
-272.4609375,-526.3671875,-712.890625,-275.390625
-803.7109375,-951.171875,-607.421875,-815.91796875
353.02734375,474.609375,-588.8671875,524.90234375
-1000.0,-1000.0,-725.09765625,-1000.0
-450.68359375,-995.60546875,-795.8984375,-547.36328125
-929.19921875,454.58984375,-663.57421875,990.72265625
812.01171875,943.359375,-538.57421875,-999.51171875
-752.44140625,-513.671875,-624.51171875,-467.28515625
-992.1875,-1000.0,-797.8515625,-1000.0
545.41015625,-71.77734375,-704.58984375,403.3203125
-868.1640625,-902.34375,-510.25390625,-829.1015625
-154.296875,-49.31640625,-492.1875,39.0625
-1000.0,-1000.0,-685.05859375,-1000.0
-81.54296875,-303.22265625,-767.08984375,-184.5703125
-776.85546875,-842.7734375,-590.8203125,-780.2734375
212.40234375,262.6953125,-506.8359375,219.7265625
-1000.0,-1000.0,-687.01171875,-1000.0
-273.92578125,-640.625,-811.03515625,-272.94921875
-810.546875,938.4765625,-602.05078125,-828.125
475.09765625,610.83984375,-525.87890625,617.67578125
-1000.0,-913.0859375,-713.8671875,-1000.0
-553.22265625,-1000.0,-794.43359375,-668.45703125
992.1875,306.15234375,-606.93359375,890.13671875
963.8671875,-946.77734375,-418.45703125,-889.16015625
-513.671875,-324.70703125,-574.70703125,-241.2109375
-1000.0,-1000.0,-807.12890625,-1000.0
336.42578125,-153.80859375,-664.0625,185.546875
-777.83203125,-825.68359375,-423.33984375,-754.8828125
64.94140625,145.99609375,-590.33203125,189.453125
-1000.0,-1000.0,-784.66796875,-1000.0
-202.63671875,-377.9296875,-732.421875,-270.99609375
-790.52734375,-863.28125,-580.078125,-796.38671875
224.609375,343.26171875,-579.1015625,316.40625
-1000.0,-1000.0,-734.86328125,-1000.0
-272.4609375,-764.6484375,-752.44140625,-358.3984375
-824.70703125,794.43359375,-584.9609375,-884.27734375
589.84375,768.06640625,-498.53515625,769.53125
-1000.0,-756.34765625,-657.2265625,-842.28515625
-645.99609375,-1000.0,-704.1015625,-832.51953125
909.66796875,155.76171875,-589.35546875,726.5625
-908.69140625,-864.74609375,-564.94140625,-838.8671875
-275.87890625,-123.046875,-628.41796875,-103.515625
-1000.0,-1000.0,-724.12109375,-1000.0
178.7109375,-189.94140625,-717.7734375,30.2734375
-757.32421875,-816.89453125,-594.7265625,-758.30078125
189.94140625,197.75390625,-580.078125,200.68359375
-1000.0,-1000.0,-718.26171875,-1000.0
-268.06640625,-462.890625,-756.8359375,-275.390625
-798.33984375,-906.25,-621.58203125,-805.17578125
270.5078125,409.66796875,-520.01953125,449.70703125
-1000.0,-1000.0,-645.5078125,-1000.0
-362.3046875,-866.69921875,-786.1328125,-469.7265625
-878.90625,659.66796875,-627.44140625,-958.49609375
720.21484375,863.28125,-433.59375,924.31640625
-901.3671875,-623.046875,-565.4296875,-594.23828125
-823.73046875,-1000.0,-811.03515625,-1000.0
755.37109375,29.296875,-695.3125,519.53125
-902.83203125,-898.4375,-498.046875,-845.703125
-221.19140625,-90.33203125,-566.40625,-46.38671875
-1000.0,-1000.0,-753.41796875,-1000.0
36.1328125,-246.58203125,-742.1875,-88.37890625
-762.6953125,-825.1953125,-415.0390625,-767.578125
200.1953125,239.74609375,-381.34765625,209.9609375
-1000.0,-1000.0,-793.9453125,-1000.0
-272.94921875,-578.61328125,-792.96875,-274.90234375
-804.6875,-992.67578125,-546.875,-815.4296875
388.671875,507.32421875,-541.50390625,534.66796875
-1000.0,-997.0703125,-726.07421875,-1000.0
-505.37109375,-1000.0,-754.8828125,-573.2421875
-960.44921875,367.1875,-608.3984375,959.47265625
854.00390625,948.73046875,-497.0703125,-954.1015625
-702.1484375,-477.05078125,-637.6953125,-368.65234375
-1000.0,-1000.0,-754.39453125,-1000.0
472.65625,-114.2578125,-619.62890625,291.9921875
-795.41015625,-831.0546875,-567.87109375,-764.16015625
-9.27734375,98.14453125,-627.44140625,164.55078125
-1000.0,-1000.0,-761.23046875,-1000.0
-78.125,-297.8515625,-741.2109375,-238.76953125
-768.5546875,-832.03125,-574.70703125,-788.57421875
210.44921875,320.80078125,-576.171875,225.5859375
-1000.0,-1000.0,-738.28125,-1000.0
-275.390625,-612.3046875,-775.87890625,-271.97265625
-814.94140625,986.328125,-562.5,-832.03125
518.5546875,655.2734375,-481.93359375,640.13671875
-1000.0,-877.44140625,-595.21484375,-1000.0
-585.9375,-1000.0,-716.796875,-701.171875
974.12109375,285.15625,-700.68359375,853.515625
987.3046875,-933.10546875,-546.38671875,-871.09375
-466.30859375,-292.48046875,-551.26953125,-171.38671875
-1000.0,-1000.0,-743.65234375,-1000.0
264.6484375,-164.55078125,-746.58203125,117.1875
-763.671875,-831.0546875,-529.296875,-746.58203125
86.42578125,139.6484375,-557.6171875,175.29296875
-1000.0,-1000.0,-761.71875,-1000.0
-148.4375,-396.484375,-746.09375,-183.59375
-806.640625,-873.046875,-494.62890625,-809.08203125
228.02734375,373.046875,-401.3671875,344.23828125
-1000.0,-1000.0,-706.54296875,-1000.0
-269.53125,-769.04296875,-796.875,-395.99609375
-836.9140625,767.578125,-535.64453125,-907.71484375
654.78515625,859.86328125,-441.89453125,812.01171875
-992.1875,-648.92578125,-690.4296875,-779.296875
-669.921875,-1000.0,-793.45703125,-887.6953125
893.06640625,147.94921875,-650.390625,659.1796875
-887.6953125,-846.19140625,-544.921875,-822.265625
-204.1015625,-66.89453125,-628.90625,-60.05859375
-1000.0,-1000.0,-774.90234375,-1000.0
119.62890625,-214.84375,-632.8125,-5.859375
-756.8359375,-821.77734375,-428.7109375,-759.765625
195.3125,198.73046875,-594.7265625,205.078125
-1000.0,-1000.0,-764.6484375,-1000.0
-250.48828125,-518.06640625,-741.69921875,-256.8359375
-857.421875,986.328125,-615.72265625,-865.234375
197.265625,325.1953125,-572.265625,396.484375
-1000.0,-1000.0,-687.98828125,-1000.0
-437.01171875,-981.4453125,-762.6953125,-520.5078125
-897.94921875,506.8359375,-661.1328125,-944.82421875
701.66015625,841.796875,-567.87109375,847.65625
-942.3828125,-698.73046875,-591.796875,-725.5859375
-873.046875,-1000.0,-690.4296875,-1000.0
646.97265625,-26.3671875,-695.3125,439.94140625
-825.68359375,-827.1484375,-559.5703125,-787.109375
-81.0546875,63.96484375,-588.8671875,74.21875
-1000.0,-1000.0,-737.3046875,-1000.0
28.80859375,-242.1875,-739.74609375,-145.99609375
-757.32421875,-813.4765625,-574.21875,-774.4140625
199.70703125,273.92578125,-561.5234375,216.30859375
-1000.0,-1000.0,-745.1171875,-1000.0
-274.90234375,-553.22265625,-768.5546875,-273.92578125
-806.15234375,-973.14453125,-593.26171875,-823.73046875
426.7578125,554.19921875,-382.8125,595.21484375
-1000.0,-958.984375,-522.4609375,-1000.0
-516.6015625,-1000.0,-795.8984375,-622.55859375
-979.00390625,395.5078125,-680.17578125,926.7578125
912.109375,-993.65234375,-397.4609375,-912.109375
-613.76953125,-412.109375,-495.1171875,-292.96875
-1000.0,-1000.0,-828.125,-1000.0
437.98828125,-122.0703125,-705.56640625,244.62890625
-788.0859375,-822.265625,-512.6953125,-757.8125
33.69140625,130.37109375,-597.65625,187.01171875
-1000.0,-1000.0,-794.43359375,-1000.0
-125.0,-326.171875,-737.79296875,-260.25390625
-773.92578125,-840.33203125,-492.1875,-792.96875
214.84375,335.9375,-512.20703125,271.484375
-1000.0,-1000.0,-748.046875,-1000.0
-274.4140625,-666.9921875,-740.72265625,-320.80078125
-820.3125,899.90234375,-467.7734375,-865.234375
565.4296875,741.2109375,-467.28515625,722.65625
-1000.0,-782.2265625,-691.89453125,-903.80859375
-613.76953125,-1000.0,-744.62890625,-773.92578125
940.91796875,248.046875,-627.44140625,790.0390625
-950.1953125,-891.11328125,-556.15234375,-854.00390625
-353.02734375,-205.078125,-644.04296875,-152.83203125
-1000.0,-1000.0,-758.7890625,-1000.0
227.5390625,-177.734375,-687.01171875,97.65625
-762.6953125,-821.2890625,-522.94921875,-754.39453125
154.78515625,175.78125,-578.125,194.82421875
-1000.0,-1000.0,-704.58984375,-1000.0
-261.23046875,-419.43359375,-697.75390625,-273.92578125
-798.828125,-881.34765625,-590.33203125,-801.26953125
231.93359375,394.53125,-536.1328125,393.5546875
-1000.0,-1000.0,-673.33984375,-1000.0
-309.08203125,-834.9609375,-766.11328125,-435.546875
-851.07421875,703.125,-666.9921875,-939.453125
661.1328125,836.42578125,-528.3203125,885.7421875
-940.91796875,-667.48046875,-632.8125,-669.43359375
-734.375,-1000.0,-765.13671875,-957.51953125
790.52734375,66.89453125,-684.5703125,574.21875
-868.65234375,-871.09375,-483.88671875,-802.24609375
-193.84765625,-100.5859375,-506.34765625,3.41796875
-1000.0,-1000.0,-795.41015625,-1000.0
81.0546875,-228.02734375,-757.8125,-55.17578125
-759.27734375,-824.70703125,-526.3671875,-762.20703125
196.77734375,219.7265625,-559.5703125,207.03125
-1000.0,-1000.0,-767.08984375,-1000.0
-272.4609375,-517.578125,-762.20703125,-275.390625
-799.8046875,-947.75390625,-523.4375,-812.01171875
363.28125,503.41796875,-481.93359375,512.6953125
-1000.0,-1000.0,-688.4765625,-1000.0
-412.109375,-926.26953125,-789.55078125,-535.64453125
-924.31640625,545.41015625,-540.52734375,996.09375
853.515625,-997.55859375,-361.328125,994.62890625
-725.09765625,-437.5,-655.2734375,-457.03125
-902.34375,-1000.0,-788.57421875,-1000.0
648.4375,-20.5078125,-638.18359375,328.125
-818.359375,-814.94140625,-543.9453125,-769.53125
-49.8046875,94.23828125,-645.99609375,110.3515625
-1000.0,-1000.0,-757.8125,-1000.0
-13.671875,-276.85546875,-699.70703125,-180.17578125
-760.7421875,-823.73046875,-547.8515625,-779.296875
203.61328125,276.3671875,-551.26953125,219.7265625
-1000.0,-1000.0,-692.87109375,-1000.0
-275.390625,-638.671875,-689.94140625,-272.94921875
-810.05859375,945.80078125,-621.09375,-825.68359375
474.12109375,621.09375,-583.49609375,603.515625
-1000.0,-918.9453125,-668.45703125,-1000.0
-534.1796875,-1000.0,-758.7890625,-647.94921875
997.0703125,361.81640625,-681.15234375,904.78515625
976.5625,-923.33984375,-548.828125,-895.01953125
-521.484375,-294.43359375,-628.90625,-236.328125
-1000.0,-1000.0,-791.9921875,-1000.0
441.40625,-113.28125,-704.58984375,156.25
-780.76171875,-812.01171875,-487.3046875,-755.37109375
83.49609375,157.71484375,-461.9140625,191.40625
-1000.0,-1000.0,-680.17578125,-1000.0
-142.08984375,-340.33203125,-745.60546875,-270.99609375
-772.4609375,-843.75,-598.6328125,-795.8984375
214.84375,337.890625,-453.61328125,317.87109375
-1000.0,-1000.0,-616.2109375,-1000.0
-274.4140625,-751.46484375,-821.77734375,-348.6328125
-823.2421875,816.40625,-610.83984375,-875.9765625
577.63671875,740.72265625,-512.6953125,751.953125
-1000.0,-776.85546875,-688.96484375,-869.62890625
-650.390625,-1000.0,-805.17578125,-803.22265625
908.203125,146.97265625,-615.234375,757.8125
-915.52734375,-878.41796875,-395.99609375,-843.75
-302.734375,-157.71484375,-589.35546875,-105.95703125
-1000.0,-1000.0,-808.10546875,-1000.0
213.37890625,-183.10546875,-707.03125,46.38671875
-757.8125,-815.91796875,-555.17578125,-756.34765625
187.98828125,201.171875,-579.58984375,199.21875
-1000.0,-1000.0,-752.9296875,-1000.0
-269.04296875,-424.31640625,-730.95703125,-274.90234375
-796.38671875,-881.34765625,-562.5,-803.22265625
284.1796875,424.8046875,-581.0546875,425.29296875
-1000.0,-1000.0,-723.6328125,-1000.0
-340.8203125,-875.0,-754.39453125,-459.47265625
-868.1640625,646.97265625,-600.5859375,-949.70703125
710.44921875,874.51171875,-513.671875,902.34375
-904.296875,-611.81640625,-661.62109375,-648.92578125
-825.1953125,-1000.0,-715.8203125,-961.42578125
729.98046875,1.953125,-613.28125,567.87109375
-848.6328125,-840.8203125,-562.98828125,-794.43359375
-160.15625,-4.39453125,-606.4453125,2.9296875
-1000.0,-1000.0,-751.46484375,-1000.0
68.359375,-232.421875,-717.28515625,-0.9765625
-758.30078125,-815.91796875,-560.546875,-778.3203125
197.75390625,250.9765625,-556.15234375,210.9375
-1000.0,-1000.0,-698.73046875,-1000.0
-274.90234375,-480.95703125,-755.37109375,-274.90234375
-802.24609375,-924.8046875,-618.65234375,-816.89453125
416.015625,557.6171875,-512.6953125,546.875
-1000.0,-981.4453125,-637.20703125,-1000.0
-428.22265625,-939.94140625,-810.05859375,-571.77734375
-928.7109375,537.109375,-662.109375,970.21484375
869.140625,-981.93359375,-518.5546875,-971.19140625
-676.7578125,-391.11328125,-646.484375,-402.83203125
-979.98046875,-1000.0,-809.5703125,-1000.0
575.1953125,-79.1015625,-697.265625,335.44921875
-864.74609375,-826.171875,-495.1171875,-821.2890625
-115.72265625,83.984375,-552.24609375,62.5
-1000.0,-1000.0,-747.55859375,-1000.0
-95.21484375,-312.01171875,-744.62890625,-199.70703125
-776.3671875,-838.8671875,-423.828125,-782.2265625
212.890625,294.921875,-382.8125,221.19140625
-1000.0,-1000.0,-750.9765625,-1000.0
-274.4140625,-624.0234375,-786.1328125,-281.73828125
-812.98828125,941.89453125,-484.375,-839.35546875
515.625,703.125,-420.8984375,650.390625
-1000.0,-845.703125,-734.375,-983.88671875
-530.2734375,-1000.0,-776.85546875,-729.00390625
980.46875,371.09375,-618.1640625,830.078125
-961.9140625,-882.8125,-477.05078125,-870.1171875
-399.90234375,-197.265625,-621.09375,-202.1484375
-1000.0,-1000.0,-767.08984375,-1000.0
402.34375,-139.16015625,-616.69921875,148.92578125
-774.90234375,-810.546875,-540.52734375,-753.41796875
128.90625,177.24609375,-619.62890625,191.40625
-1000.0,-1000.0,-743.1640625,-1000.0
-229.4921875,-382.8125,-705.078125,-271.97265625
-791.50390625,-860.83984375,-605.46875,-797.8515625
227.05078125,340.33203125,-586.9140625,343.75
-1000.0,-1000.0,-744.140625,-1000.0
-294.43359375,-840.33203125,-797.36328125,-390.13671875
-832.03125,711.9140625,-625.0,-909.1796875
583.49609375,735.3515625,-518.5546875,821.77734375
-1000.0,-787.109375,-596.19140625,-759.765625
-716.796875,-1000.0,-730.95703125,-902.34375
829.58984375,89.84375,-700.68359375,644.53125
-877.44140625,-863.28125,-545.8984375,-819.82421875
-234.86328125,-106.93359375,-593.26171875,-65.4296875
-1000.0,-1000.0,-759.765625,-1000.0
163.0859375,-187.5,-722.16796875,0.9765625
-754.39453125,-809.08203125,-522.4609375,-759.765625
189.94140625,231.4453125,-531.25,203.125
-1000.0,-1000.0,-759.765625,-1000.0
-267.578125,-402.83203125,-752.9296875,-274.90234375
-794.43359375,-875.48828125,-521.97265625,-807.12890625
353.02734375,509.765625,-427.734375,460.9375
-1000.0,-1000.0,-708.984375,-1000.0
-334.9609375,-843.75,-820.80078125,-503.41796875
-879.8828125,683.59375,-604.00390625,-982.421875
790.0390625,954.58984375,-509.765625,955.078125
-798.33984375,-492.67578125,-687.5,-547.8515625
-858.3984375,-1000.0,-802.734375,-1000.0
707.51953125,8.30078125,-674.31640625,452.63671875
-840.33203125,-842.28515625,-531.25,-781.25
-116.69921875,-2.44140625,-599.609375,70.80078125
-1000.0,-1000.0,-770.01953125,-1000.0
0.48828125,-276.3671875,-655.76171875,-114.2578125
-764.16015625,-833.0078125,-445.3125,-767.578125
203.61328125,248.53515625,-576.66015625,212.40234375
-1000.0,-1000.0,-780.76171875,-1000.0
-273.92578125,-598.14453125,-695.80078125,-274.4140625
-806.640625,988.76953125,-547.8515625,-819.3359375
413.57421875,533.203125,-597.16796875,562.98828125
-1000.0,-962.890625,-702.1484375,-1000.0
-553.7109375,-1000.0,-771.97265625,-586.9140625
-969.23828125,318.84765625,-677.734375,939.94140625
821.2890625,887.20703125,-579.58984375,-914.55078125
-720.21484375,-573.2421875,-614.2578125,-283.69140625
-1000.0,-1000.0,-719.7265625,-1000.0
337.40234375,-153.80859375,-700.1953125,242.1875
-774.90234375,-832.03125,-574.70703125,-760.25390625
20.5078125,124.0234375,-561.03515625,153.80859375
-1000.0,-1000.0,-693.359375,-1000.0
-18.5546875,-251.953125,-738.28125,-261.71875
-755.37109375,-812.98828125,-537.59765625,-795.8984375
202.1484375,447.265625,-494.62890625,238.28125
-1000.0,-1000.0,-707.51953125,-1000.0
-268.06640625,-365.234375,-772.4609375,-261.23046875
-849.12109375,-944.82421875,-555.17578125,-863.28125
736.328125,971.19140625,-357.421875,781.25
-916.50390625,-474.609375,-574.70703125,-862.79296875
-472.65625,-922.8515625,-780.76171875,-590.8203125
-958.984375,623.53515625,-676.26953125,952.63671875
-981.4453125,-898.92578125,-366.69921875,-894.53125
-271.97265625,-155.2734375,-423.33984375,-94.23828125
-1000.0,-1000.0,-834.47265625,-1000.0
84.47265625,-219.23828125,-743.1640625,-7.8125
-854.4921875,832.03125,-519.04296875,-764.16015625
-231.93359375,-493.65234375,-591.30859375,205.078125
-1000.0,-1000.0,-819.3359375,-1000.0
-217.7734375,-919.43359375,-796.875,-270.99609375
-831.0546875,344.23828125,-593.75,-791.9921875
243.65234375,93.75,-609.375,336.9140625
-1000.0,-1000.0,-776.85546875,-1000.0
-405.76171875,-927.734375,-763.671875,-280.2734375
-962.40234375,336.42578125,-555.17578125,-847.65625
963.37890625,-765.13671875,-492.67578125,727.05078125
-657.71484375,-265.13671875,-633.30078125,-836.9140625
-363.28125,-597.16796875,-747.0703125,-917.48046875
-981.93359375,867.1875,-578.61328125,616.2109375
-845.703125,-811.03515625,-327.1484375,-830.56640625
52.24609375,175.29296875,-464.84375,-87.890625
-778.3203125,-995.60546875,-704.58984375,-1000.0
690.4296875,268.06640625,-636.71875,-101.07421875
-789.55078125,-761.23046875,-455.56640625,-779.78515625
183.59375,145.01953125,-541.015625,215.33203125
-1000.0,-1000.0,-761.23046875,-1000.0
-288.0859375,-945.3125,-768.06640625,-274.4140625
-814.94140625,473.6328125,-670.8984375,-815.91796875
225.09765625,94.7265625,-631.8359375,549.31640625
-1000.0,-1000.0,-748.046875,-1000.0
-889.6484375,-1000.0,-835.9375,-538.0859375
731.4453125,-237.79296875,-737.79296875,-985.3515625
422.8515625,13.18359375,-594.7265625,955.56640625
-1000.0,-994.62890625,-649.4140625,-504.39453125
-1000.0,-1000.0,-777.83203125,-1000.0
86.9140625,-261.23046875,-726.07421875,305.17578125
-803.22265625,938.96484375,-529.78515625,-771.97265625
-198.2421875,-296.38671875,-501.46484375,78.61328125
-1000.0,-1000.0,-737.3046875,-1000.0
116.69921875,-162.59765625,-758.7890625,-177.24609375
-737.3046875,-833.49609375,-402.83203125,-785.15625
228.515625,609.86328125,-352.5390625,224.609375
-1000.0,-955.078125,-703.125,-1000.0
-15.13671875,-177.24609375,-729.98046875,-332.03125
-765.625,-864.74609375,-454.58984375,-844.7265625
640.625,926.7578125,-351.5625,596.6796875
-972.65625,-507.8125,-615.234375,-1000.0
-359.375,-765.13671875,-788.57421875,-727.5390625
-871.58203125,835.44921875,-501.46484375,828.61328125
870.60546875,993.1640625,-312.98828125,-886.23046875
-469.23828125,-317.3828125,-655.2734375,-294.43359375
-1000.0,-1000.0,-855.46875,-1000.0
77.1484375,-258.30078125,-679.6875,249.51171875
-901.3671875,710.9375,-568.84765625,-758.30078125
-300.78125,-562.5,-696.77734375,188.4765625
-1000.0,-1000.0,-786.62109375,-1000.0
-215.8203125,-831.0546875,-776.85546875,-244.140625
-828.125,439.94140625,-638.671875,-853.515625
238.28125,32.71484375,-589.35546875,237.79296875
-1000.0,-1000.0,-703.61328125,-1000.0
-324.70703125,-865.72265625,-734.375,-432.12890625
-833.49609375,589.35546875,-650.87890625,-910.64453125
589.84375,813.4765625,-571.77734375,760.25390625
-1000.0,-888.671875,-679.19921875,-826.66015625
-383.30078125,-724.12109375,-755.37109375,-955.56640625
997.55859375,728.515625,-632.32421875,572.75390625
-861.81640625,-809.08203125,-447.265625,-829.58984375
-135.25390625,101.5625,-504.8828125,-160.64453125
-855.46875,-1000.0,-748.53515625,-1000.0
673.33984375,188.96484375,-691.40625,5.859375
-795.41015625,-764.16015625,-455.078125,-766.11328125
185.05859375,212.890625,-388.18359375,204.58984375
-1000.0,-1000.0,-663.0859375,-1000.0
-266.11328125,-592.7734375,-807.6171875,-273.92578125
-807.6171875,-989.74609375,-610.83984375,-800.78125
240.72265625,267.08984375,-538.57421875,415.0390625
-1000.0,-1000.0,-735.83984375,-1000.0
-597.16796875,-1000.0,-842.28515625,-408.203125
-957.51953125,192.3828125,-678.7109375,-937.98828125
510.25390625,456.0546875,-551.26953125,921.38671875
-1000.0,-966.796875,-670.41015625,-610.3515625
-993.65234375,-1000.0,-816.40625,-949.21875
447.75390625,-102.05078125,-679.6875,585.9375
-867.67578125,948.2421875,-377.9296875,-797.8515625
-330.56640625,-376.953125,-517.08984375,64.453125
-1000.0,-1000.0,-827.63671875,-1000.0
106.93359375,-197.75390625,-693.84765625,-97.65625
-756.34765625,-817.87109375,-462.40234375,-765.13671875
185.546875,345.703125,-548.828125,210.44921875
-1000.0,-1000.0,-744.140625,-1000.0
-167.96875,-263.671875,-733.3984375,-280.76171875
-758.30078125,-886.71875,-535.64453125,-786.62109375
513.671875,879.39453125,-436.5234375,428.22265625
-903.80859375,-542.96875,-619.62890625,-976.5625
-34.1796875,-604.00390625,-722.16796875,-233.3984375
-902.83203125,843.26171875,-574.70703125,986.328125
900.87890625,-959.9609375,-434.5703125,972.65625
-505.37109375,-240.234375,-605.95703125,-454.1015625
-1000.0,-1000.0,-738.76953125,-1000.0
414.55078125,-111.328125,-626.953125,287.59765625
-823.2421875,-958.984375,-599.12109375,-769.53125
-155.2734375,-207.03125,-635.7421875,141.11328125
-1000.0,-1000.0,-748.53515625,-1000.0
-197.75390625,-410.64453125,-767.578125,-243.1640625
-810.546875,-928.22265625,-620.60546875,-794.43359375
230.46875,215.33203125,-573.73046875,230.46875
-1000.0,-1000.0,-708.0078125,-1000.0
-272.4609375,-583.49609375,-772.94921875,-311.03515625
-812.01171875,941.40625,-645.01953125,-845.21484375
541.015625,761.71875,-468.75,634.765625
-1000.0,-850.5859375,-554.6875,-998.046875
-430.6640625,-869.62890625,-791.015625,-757.8125
-998.046875,586.42578125,-684.08203125,799.8046875
-902.34375,-827.1484375,-408.203125,-871.58203125
-293.45703125,-12.6953125,-512.6953125,-232.91015625
-973.14453125,-1000.0,-821.77734375,-1000.0
594.7265625,-9.765625,-713.37890625,170.41015625
-848.14453125,-842.7734375,-497.55859375,-811.5234375
57.12890625,87.40234375,-543.45703125,103.515625
-1000.0,-1000.0,-760.25390625,-1000.0
-260.7421875,-445.3125,-777.83203125,-272.4609375
-803.22265625,-896.97265625,-453.125,-798.828125
233.88671875,277.34375,-406.25,344.7265625
-1000.0,-1000.0,-787.109375,-1000.0
-345.703125,-921.875,-833.984375,-356.93359375
-844.7265625,591.30859375,-507.8125,-898.4375
555.6640625,673.33984375,-427.24609375,830.078125
-1000.0,-864.74609375,-739.2578125,-770.5078125
-688.96484375,-1000.0,-795.41015625,-818.84765625
833.984375,81.0546875,-626.953125,751.46484375
-857.421875,-834.47265625,-461.9140625,-834.47265625
-222.65625,-27.83203125,-604.98046875,-63.4765625
-1000.0,-1000.0,-760.7421875,-1000.0
315.91796875,-138.671875,-624.0234375,26.85546875
-754.8828125,-789.55078125,-527.83203125,-755.859375
178.22265625,257.32421875,-577.1484375,200.1953125
-1000.0,-1000.0,-757.32421875,-1000.0
-195.3125,-327.1484375,-749.51171875,-275.390625
-776.3671875,-839.35546875,-561.5234375,-807.12890625
363.28125,524.90234375,-514.6484375,452.63671875
-1000.0,-993.1640625,-689.94140625,-1000.0
-356.4453125,-891.11328125,-772.4609375,-511.71875
-859.375,671.38671875,-610.3515625,-990.72265625
699.70703125,847.16796875,-507.8125,963.37890625
-878.41796875,-622.55859375,-590.8203125,-545.8984375
-918.45703125,-1000.0,-736.81640625,-1000.0
612.79296875,-59.08203125,-722.16796875,474.609375
-835.44921875,-874.51171875,-573.73046875,-785.15625
-161.62109375,-61.03515625,-556.15234375,59.5703125
-1000.0,-1000.0,-716.30859375,-1000.0
17.578125,-245.60546875,-761.71875,-118.65234375
-765.13671875,-820.3125,-543.9453125,-769.53125
202.63671875,294.43359375,-529.296875,213.37890625
-1000.0,-1000.0,-765.13671875,-1000.0
-276.85546875,-401.3671875,-752.44140625,-274.4140625
-805.17578125,-913.0859375,-521.484375,-822.75390625
511.71875,751.953125,-296.38671875,580.078125
-1000.0,-831.0546875,-573.73046875,-1000.0
-345.703125,-796.38671875,-835.9375,-637.20703125
-923.33984375,727.05078125,-560.05859375,921.875
973.6328125,-908.203125,-391.11328125,-925.29296875
-499.51171875,-198.2421875,-645.99609375,-331.0546875
-963.37890625,-1000.0,-812.98828125,-1000.0
595.21484375,-53.22265625,-672.8515625,263.18359375
-806.640625,-810.546875,-553.22265625,-757.8125
21.97265625,110.3515625,-609.86328125,183.10546875
-1000.0,-1000.0,-764.16015625,-1000.0
-154.78515625,-364.2578125,-680.17578125,-219.23828125
-782.2265625,-859.86328125,-475.5859375,-779.296875
219.23828125,278.3203125,-588.8671875,266.6015625
-1000.0,-1000.0,-786.62109375,-1000.0
-273.4375,-756.8359375,-723.14453125,-276.85546875
-813.96484375,806.15234375,-558.59375,-845.21484375
514.6484375,690.4296875,-583.984375,697.265625
-1000.0,-874.51171875,-701.171875,-914.55078125
-555.6640625,-1000.0,-774.4140625,-789.55078125
951.66015625,311.03515625,-674.8046875,774.90234375
-919.43359375,-859.375,-549.31640625,-857.421875
-337.40234375,-146.484375,-598.14453125,-169.921875
-1000.0,-1000.0,-725.5859375,-1000.0
403.3203125,-117.67578125,-707.03125,78.61328125
-768.5546875,-798.828125,-560.05859375,-757.32421875
180.17578125,203.125,-583.984375,197.265625
-1000.0,-1000.0,-766.6015625,-1000.0
-214.84375,-358.88671875,-760.7421875,-272.94921875
-780.76171875,-847.16796875,-580.078125,-800.78125
226.07421875,392.08984375,-515.13671875,379.39453125
-1000.0,-1000.0,-702.63671875,-1000.0
-280.76171875,-810.546875,-791.50390625,-433.10546875
-834.47265625,758.30078125,-637.6953125,-914.0625
636.23046875,782.71484375,-419.921875,814.94140625
-1000.0,-752.9296875,-541.9921875,-789.0625
-711.42578125,-1000.0,-790.0390625,-908.69140625
838.8671875,125.0,-704.1015625,625.0
-862.3046875,-833.49609375,-374.51171875,-813.96484375
-185.546875,-25.390625,-421.875,-18.5546875
-1000.0,-1000.0,-823.2421875,-1000.0
207.03125,-175.29296875,-725.5859375,-36.1328125
-750.9765625,-798.33984375,-480.95703125,-761.23046875
186.5234375,258.7890625,-539.0625,205.56640625
-1000.0,-1000.0,-770.5078125,-1000.0
