"eeg0","eeg1","eeg2","eeg3"
-1000.0,-1000.0,-1000.0,-1000.0
-293.45703125,-490.72265625,-911.1328125,-708.984375
-825.1953125,-918.9453125,112.79296875,858.3984375
525.390625,644.04296875,332.51953125,-919.921875
-1000.0,-924.31640625,-711.42578125,-313.4765625
-781.73828125,-1000.0,-1000.0,-1000.0
799.31640625,461.9140625,-225.5859375,133.30078125
-974.12109375,-865.234375,456.54296875,-761.71875
-433.59375,-239.2578125,-403.3203125,179.19921875
-1000.0,-1000.0,-1000.0,-1000.0
98.6328125,-120.1171875,-472.16796875,-264.16015625
-775.390625,-799.31640625,479.98046875,-800.29296875
105.95703125,202.63671875,-95.21484375,246.58203125
-1000.0,-1000.0,-1000.0,-1000.0
-252.44140625,-270.99609375,-824.21875,-382.32421875
-810.05859375,-811.03515625,245.60546875,-881.34765625
239.74609375,313.4765625,114.74609375,686.5234375
-1000.0,-1000.0,-974.12109375,-923.33984375
-446.77734375,-629.39453125,-941.89453125,-874.51171875
-896.97265625,967.7734375,81.0546875,656.73828125
641.11328125,784.1796875,465.8203125,-823.73046875
-1000.0,-819.82421875,-627.44140625,-229.00390625
-826.66015625,-1000.0,-1000.0,-1000.0
765.13671875,448.2421875,-94.7265625,293.9453125
-874.0234375,-828.125,529.78515625,-787.109375
-245.1171875,-93.75,-359.86328125,197.75390625
-1000.0,-1000.0,-1000.0,-1000.0
-16.11328125,-191.89453125,-489.2578125,-272.4609375
-775.87890625,-805.6640625,527.83203125,-801.7578125
207.51953125,230.95703125,-66.89453125,379.8828125
-1000.0,-1000.0,-1000.0,-1000.0
-270.5078125,-309.08203125,-788.0859375,-451.66015625
-803.22265625,-824.70703125,296.38671875,-932.6171875
338.8671875,440.4296875,125.0,835.9375
-1000.0,-1000.0,-935.05859375,-716.30859375
-505.37109375,-704.58984375,-984.86328125,-1000.0
-940.4296875,880.37109375,-84.47265625,505.37109375
764.6484375,934.08203125,402.83203125,-805.17578125
-808.59375,-563.4765625,-540.0390625,-48.33984375
-1000.0,-1000.0,-1000.0,-1000.0
445.80078125,160.15625,-350.5859375,-87.40234375
-812.98828125,-787.109375,482.91015625,-773.4375
-88.8671875,44.921875,-246.09375,212.890625
-1000.0,-1000.0,-1000.0,-1000.0
-131.34765625,-237.3046875,-681.15234375,-273.92578125
-786.62109375,-808.59375,317.87109375,-812.01171875
219.23828125,237.79296875,8.30078125,483.88671875
-1000.0,-1000.0,-1000.0,-1000.0
-271.97265625,-395.99609375,-900.390625,-593.26171875
-810.05859375,-863.28125,112.3046875,974.12109375
424.8046875,521.484375,270.01953125,960.9375
-1000.0,-1000.0,-789.0625,-518.5546875
-646.484375,-884.765625,-1000.0,-1000.0
957.03125,652.83203125,-104.00390625,286.1328125
896.97265625,-961.9140625,530.2734375,-775.390625
-614.2578125,-415.52734375,-369.140625,74.21875
-1000.0,-1000.0,-1000.0,-1000.0
211.42578125,-3.41796875,-450.1953125,-230.95703125
-786.62109375,-789.0625,438.4765625,-798.33984375
-11.23046875,138.18359375,-245.60546875,230.46875
-1000.0,-1000.0,-1000.0,-1000.0
-239.2578125,-254.8828125,-760.7421875,-296.38671875
-812.5,-809.5703125,299.8046875,-831.0546875
236.81640625,260.7421875,44.43359375,569.82421875
-1000.0,-1000.0,-1000.0,-1000.0
-335.9375,-513.18359375,-866.2109375,-698.2421875
-839.35546875,-933.10546875,252.9296875,875.9765625
531.73828125,654.296875,355.46875,-916.50390625
-1000.0,-919.921875,-753.41796875,-308.59375
-787.109375,-1000.0,-1000.0,-1000.0
783.203125,450.68359375,-28.3203125,144.53125
-954.1015625,-850.09765625,526.85546875,-760.25390625
-400.87890625,-208.984375,-468.75,184.08203125
-1000.0,-1000.0,-1000.0,-1000.0
92.28515625,-99.12109375,-499.51171875,-266.6015625
-769.04296875,-791.015625,402.34375,-798.33984375
172.8515625,208.984375,-166.9921875,273.4375
-1000.0,-1000.0,-1000.0,-1000.0
-261.71875,-266.6015625,-811.5234375,-358.3984375
-802.734375,-807.12890625,246.58203125,-875.48828125
236.81640625,346.19140625,72.75390625,709.9609375
-1000.0,-1000.0,-1000.0,-892.578125
-409.1796875,-597.65625,-975.09765625,-874.0234375
-876.953125,997.0703125,1.46484375,670.41015625
622.0703125,796.875,444.82421875,-843.26171875
-980.95703125,-747.0703125,-581.54296875,-158.69140625
-914.0625,-1000.0,-1000.0,-1000.0
602.5390625,289.55078125,-293.45703125,14.6484375
-853.02734375,-808.10546875,459.9609375,-764.6484375
-218.26171875,-77.63671875,-317.87109375,203.61328125
-1000.0,-1000.0,-1000.0,-1000.0
-18.06640625,-200.1953125,-579.58984375,-272.4609375
-774.4140625,-807.12890625,467.7734375,-804.19921875
207.51953125,232.91015625,31.73828125,387.6953125
-1000.0,-1000.0,-1000.0,-1000.0
-269.53125,-330.56640625,-885.7421875,-507.8125
-805.17578125,-832.03125,215.8203125,-956.54296875
324.21875,423.828125,218.26171875,837.40234375
-1000.0,-1000.0,-905.2734375,-717.28515625
-554.6875,-759.27734375,-1000.0,-1000.0
-967.7734375,822.265625,-22.4609375,457.51953125
770.99609375,911.62109375,467.28515625,-802.734375
-803.7109375,-592.28515625,-530.76171875,-52.24609375
-1000.0,-1000.0,-1000.0,-1000.0
401.3671875,106.4453125,-268.06640625,-104.00390625
-812.5,-791.9921875,525.390625,-777.34375
-109.86328125,38.57421875,-335.9375,215.33203125
-1000.0,-1000.0,-1000.0,-1000.0
-139.16015625,-243.65234375,-677.24609375,-273.92578125
-790.52734375,-811.5234375,322.265625,-812.01171875
220.703125,239.2578125,-13.671875,490.234375
-1000.0,-1000.0,-1000.0,-1000.0
-271.97265625,-402.83203125,-876.46484375,-584.9609375
-810.546875,-868.1640625,153.3203125,972.65625
436.5234375,546.875,291.50390625,977.5390625
-1000.0,-1000.0,-744.140625,-488.28125
-635.25390625,-869.62890625,-984.86328125,-1000.0
952.63671875,661.1328125,-149.90234375,278.80859375
930.6640625,-924.8046875,403.3203125,-771.484375
-559.08203125,-348.14453125,-461.42578125,97.65625
-1000.0,-1000.0,-1000.0,-1000.0
204.1015625,13.671875,-448.2421875,-227.5390625
-775.87890625,-781.25,432.6171875,-793.9453125
60.05859375,160.15625,-185.05859375,227.5390625
-1000.0,-1000.0,-1000.0,-1000.0
-248.046875,-259.27734375,-745.1171875,-280.2734375
-806.640625,-807.12890625,311.5234375,-827.63671875
234.86328125,271.484375,124.0234375,591.30859375
-1000.0,-1000.0,-950.1953125,-1000.0
-322.75390625,-505.37109375,-948.73046875,-736.328125
-835.44921875,-929.19921875,64.94140625,829.58984375
528.80859375,663.57421875,399.90234375,-905.2734375
-1000.0,-905.2734375,-647.94921875,-291.50390625
-804.19921875,-1000.0,-1000.0,-1000.0
770.01953125,437.5,-220.21484375,118.1640625
-960.9375,-853.515625,459.9609375,-761.23046875
-416.015625,-210.9375,-435.546875,186.03515625
-1000.0,-1000.0,-1000.0,-1000.0
79.1015625,-141.11328125,-477.5390625,-266.11328125
-773.92578125,-801.7578125,520.5078125,-800.29296875
145.5078125,210.9375,-51.26953125,269.04296875
-1000.0,-1000.0,-1000.0,-1000.0
-257.8125,-280.76171875,-785.15625,-408.203125
-807.6171875,-813.4765625,350.09765625,-894.04296875
239.2578125,333.984375,59.08203125,709.47265625
-1000.0,-1000.0,-1000.0,-903.80859375
-458.0078125,-642.578125,-915.0390625,-879.39453125
-897.94921875,958.0078125,84.47265625,657.71484375
628.90625,795.41015625,356.93359375,-840.33203125
-980.46875,-753.41796875,-647.4609375,-154.78515625
-928.22265625,-1000.0,-1000.0,-1000.0
578.125,246.09375,-253.41796875,15.13671875
-845.21484375,-804.6875,419.43359375,-764.6484375
-202.1484375,-63.96484375,-375.48828125,203.125
-1000.0,-1000.0,-1000.0,-1000.0
-19.53125,-199.21875,-632.8125,-272.94921875
-773.4375,-805.6640625,356.4453125,-803.7109375
207.51953125,231.93359375,-42.96875,397.94921875
-1000.0,-1000.0,-1000.0,-1000.0
-270.5078125,-322.265625,-858.3984375,-499.51171875
-804.19921875,-830.078125,177.24609375,-959.9609375
339.35546875,458.0078125,198.2421875,866.2109375
-1000.0,-1000.0,-846.19140625,-681.640625
-535.15625,-736.81640625,-979.00390625,-1000.0
-969.23828125,841.796875,-104.00390625,464.35546875
812.01171875,955.56640625,446.77734375,-794.43359375
-744.140625,-530.76171875,-461.42578125,4.39453125
-1000.0,-1000.0,-1000.0,-1000.0
395.5078125,125.0,-382.8125,-110.83984375
-800.29296875,-785.15625,472.65625,-773.4375
-56.15234375,70.3125,-257.32421875,214.35546875
-1000.0,-1000.0,-1000.0,-1000.0
-134.765625,-244.62890625,-702.63671875,-274.4140625
-784.66796875,-809.5703125,365.234375,-814.94140625
218.75,238.76953125,36.1328125,508.30078125
-1000.0,-1000.0,-1000.0,-1000.0
-271.97265625,-424.8046875,-899.90234375,-623.53515625
-811.03515625,-877.44140625,223.14453125,954.1015625
436.5234375,543.45703125,281.73828125,982.91015625
-1000.0,-1000.0,-859.375,-483.88671875
-661.1328125,-911.62109375,-1000.0,-1000.0
946.77734375,609.375,-139.6484375,248.53515625
907.71484375,-930.6640625,440.4296875,-771.97265625
-598.14453125,-363.76953125,-478.02734375,82.03125
-1000.0,-1000.0,-1000.0,-1000.0
187.5,-36.1328125,-405.2734375,-237.3046875
-781.25,-791.015625,482.421875,-799.31640625
39.0625,156.73828125,-179.19921875,230.95703125
-1000.0,-1000.0,-1000.0,-1000.0
-245.1171875,-257.32421875,-651.85546875,-299.31640625
-809.5703125,-808.59375,380.37109375,-833.49609375
236.81640625,272.94921875,-2.44140625,585.9375
-1000.0,-1000.0,-1000.0,-1000.0
-349.609375,-522.94921875,-901.85546875,-745.60546875
-844.23828125,-940.4296875,66.89453125,811.03515625
533.203125,676.7578125,305.17578125,-891.6015625
-1000.0,-897.4609375,-709.9609375,-273.4375
-795.41015625,-1000.0,-1000.0,-1000.0
750.9765625,427.24609375,-227.05078125,122.55859375
-906.25,-838.37890625,439.94140625,-759.27734375
-317.87109375,-171.38671875,-402.83203125,194.3359375
-1000.0,-1000.0,-1000.0,-1000.0
88.37890625,-126.46484375,-537.59765625,-269.53125
-764.6484375,-794.43359375,435.546875,-798.828125
197.265625,215.33203125,-86.42578125,304.19921875
-1000.0,-1000.0,-1000.0,-1000.0
-265.625,-272.4609375,-838.37890625,-409.66796875
-803.22265625,-809.08203125,242.1875,-896.97265625
237.79296875,360.83984375,125.48828125,737.3046875
-1000.0,-1000.0,-968.26171875,-866.2109375
-448.2421875,-633.30078125,-961.42578125,-899.90234375
-902.34375,963.37890625,21.484375,638.18359375
660.15625,821.2890625,509.27734375,-835.44921875
-945.3125,-714.84375,-507.32421875,-138.671875
-933.10546875,-1000.0,-1000.0,-1000.0
576.171875,244.140625,-271.97265625,-7.32421875
-840.8203125,-801.26953125,494.62890625,-766.6015625
-171.875,-45.8984375,-370.60546875,205.56640625
-1000.0,-1000.0,-1000.0,-1000.0
-61.03515625,-213.8671875,-522.94921875,-272.94921875
-779.296875,-809.08203125,465.33203125,-804.19921875
211.9140625,234.86328125,-54.19921875,399.4140625
-1000.0,-1000.0,-1000.0,-1000.0
-269.53125,-352.5390625,-811.03515625,-509.27734375
-805.17578125,-841.30859375,276.3671875,-962.40234375
339.84375,452.1484375,146.484375,859.86328125
-1000.0,-1000.0,-926.26953125,-675.29296875
-565.91796875,-794.43359375,-993.1640625,-1000.0
-977.05078125,779.296875,-108.88671875,407.2265625
790.0390625,956.54296875,368.1640625,-792.96875
-773.4375,-538.0859375,-548.33984375,-11.71875
-1000.0,-1000.0,-1000.0,-1000.0
362.3046875,77.1484375,-393.5546875,-135.25390625
-802.24609375,-788.57421875,451.171875,-780.76171875
-54.19921875,72.75390625,-252.44140625,218.26171875
-1000.0,-1000.0,-1000.0,-1000.0
-187.5,-247.55859375,-700.1953125,-273.92578125
-798.828125,-810.546875,293.45703125,-815.4296875
226.07421875,239.74609375,17.08984375,517.08984375
-1000.0,-1000.0,-1000.0,-1000.0
-270.99609375,-428.22265625,-900.87890625,-626.953125
-812.01171875,-882.8125,101.5625,945.80078125
449.21875,573.73046875,297.36328125,-994.140625
-1000.0,-1000.0,-758.7890625,-477.05078125
-662.59765625,-911.62109375,-1000.0,-1000.0
944.3359375,631.8359375,-73.2421875,354.00390625
921.875,-961.42578125,503.41796875,-835.44921875
-583.0078125,-399.4140625,-393.5546875,37.109375
-1000.0,-1000.0,-1000.0,-1000.0
200.68359375,-22.4609375,-458.49609375,-249.51171875
-772.4609375,-785.64453125,452.1484375,-800.78125
87.40234375,176.26953125,-191.89453125,231.93359375
-1000.0,-1000.0,-1000.0,-1000.0
-251.46484375,-261.71875,-773.92578125,-318.359375
-807.12890625,-807.12890625,290.52734375,-841.796875
237.3046875,284.66796875,46.875,602.5390625
-1000.0,-1000.0,-1000.0,-1000.0
-371.09375,-540.0390625,-909.1796875,-760.25390625
-853.515625,-951.171875,125.48828125,794.43359375
552.24609375,692.3828125,382.32421875,-881.8359375
-1000.0,-871.09375,-679.6875,-251.953125
-798.828125,-1000.0,-1000.0,-1000.0
754.8828125,381.34765625,-65.4296875,109.375
-915.0390625,-837.40234375,518.06640625,-759.27734375
-321.2890625,-172.8515625,-459.9609375,195.3125
-1000.0,-1000.0,-1000.0,-1000.0
38.57421875,-154.78515625,-517.578125,-269.04296875
-772.4609375,-802.24609375,369.140625,-800.29296875
189.453125,219.7265625,-148.4375,299.31640625
-1000.0,-1000.0,-1000.0,-1000.0
-262.6953125,-291.015625,-832.03125,-432.6171875
-804.6875,-816.89453125,189.453125,-907.71484375
238.76953125,356.93359375,83.0078125,741.69921875
-1000.0,-1000.0,-972.65625,-856.4453125
-466.796875,-674.8046875,-976.07421875,-934.08203125
-907.2265625,942.3828125,-43.45703125,614.74609375
661.62109375,791.50390625,384.27734375,-881.34765625
-958.984375,-774.4140625,-584.9609375,-199.21875
-931.15234375,-1000.0,-1000.0,-1000.0
574.21875,223.6328125,-327.63671875,-23.4375
-836.42578125,-799.8046875,456.54296875,-769.04296875
-149.90234375,-29.296875,-260.25390625,206.54296875
-1000.0,-1000.0,-1000.0,-1000.0
-70.3125,-215.8203125,-626.46484375,-273.4375
-779.296875,-807.6171875,394.53125,-806.15234375
212.890625,234.375,29.296875,432.6171875
-1000.0,-1000.0,-1000.0,-1000.0
-270.99609375,-344.7265625,-889.6484375,-526.3671875
-806.640625,-840.8203125,211.9140625,-975.09765625
376.953125,488.76953125,214.84375,890.625
-1000.0,-1000.0,-901.3671875,-645.01953125
-565.91796875,-777.34375,-1000.0,-1000.0
-994.62890625,791.015625,-26.3671875,429.6875
864.2578125,992.67578125,503.90625,-788.57421875
-682.6171875,-473.14453125,-489.74609375,32.2265625
-1000.0,-1000.0,-1000.0,-1000.0
385.25390625,82.03125,-288.0859375,-141.6015625
-797.36328125,-782.2265625,536.62109375,-778.3203125
-21.97265625,98.14453125,-317.87109375,217.28515625
-1000.0,-1000.0,-1000.0,-1000.0
-208.984375,-250.9765625,-656.73828125,-273.92578125
-801.26953125,-809.5703125,370.1171875,-815.91796875
228.515625,239.74609375,-2.9296875,520.01953125
-1000.0,-1000.0,-1000.0,-1000.0
-270.5078125,-454.58984375,-894.53125,-643.5546875
-811.5234375,-893.5546875,134.765625,928.22265625
444.3359375,573.2421875,316.40625,-976.5625
-1000.0,-995.60546875,-726.5625,-406.73828125
-689.453125,-956.0546875,-995.60546875,-1000.0
895.5078125,542.96875,-153.80859375,185.546875
967.28515625,-902.83203125,389.16015625,-766.11328125
-506.8359375,-315.91796875,-471.6796875,133.30078125
-1000.0,-1000.0,-1000.0,-1000.0
135.25390625,-65.4296875,-499.0234375,-257.8125
-775.390625,-792.48046875,390.625,-801.26953125
92.28515625,180.17578125,-210.9375,233.88671875
-1000.0,-1000.0,-1000.0,-1000.0
-250.9765625,-260.25390625,-787.59765625,-330.56640625
-807.12890625,-807.6171875,224.609375,-851.5625
236.81640625,284.66796875,127.44140625,632.8125
-1000.0,-1000.0,-934.08203125,-998.046875
-371.09375,-546.875,-959.9609375,-776.3671875
-857.91015625,-964.35546875,47.36328125,777.83203125
588.8671875,728.02734375,395.01953125,-871.58203125
-1000.0,-836.42578125,-641.6015625,-217.7734375
-800.78125,-1000.0,-1000.0,-1000.0
743.65234375,382.8125,-246.58203125,76.171875
-875.9765625,-824.21875,453.125,-761.23046875
-247.0703125,-132.32421875,-402.34375,198.2421875
-1000.0,-1000.0,-1000.0,-1000.0
39.0625,-155.76171875,-492.67578125,-270.5078125
-768.5546875,-798.828125,555.17578125,-799.8046875
201.66015625,225.5859375,-13.18359375,321.2890625
-1000.0,-1000.0,-1000.0,-1000.0
-267.578125,-287.59765625,-790.52734375,-429.6875
-803.22265625,-814.94140625,313.4765625,-914.0625
280.76171875,391.6015625,103.02734375,778.80859375
-1000.0,-1000.0,-1000.0,-816.40625
-473.14453125,-677.734375,-924.31640625,-926.7578125
-907.2265625,940.91796875,89.84375,632.32421875
682.12890625,811.5234375,408.203125,-881.34765625
-920.8984375,-734.375,-608.88671875,-180.17578125
-990.72265625,-1000.0,-1000.0,-1000.0
492.1875,180.6640625,-283.69140625,-36.1328125
-828.61328125,-798.828125,409.66796875,-770.01953125
-139.16015625,-16.11328125,-335.44921875,208.0078125
-1000.0,-1000.0,-1000.0,-1000.0
-112.3046875,-225.09765625,-618.65234375,-272.94921875
-787.109375,-810.05859375,390.625,-806.15234375
217.7734375,236.81640625,-22.4609375,419.921875
-1000.0,-1000.0,-1000.0,-1000.0
-269.53125,-372.0703125,-847.65625,-541.9921875
-806.15234375,-850.5859375,225.09765625,-991.69921875
359.375,478.515625,260.25390625,911.62109375
-1000.0,-1000.0,-786.1328125,-598.6328125
-590.33203125,-833.49609375,-992.1875,-1000.0
991.69921875,724.609375,-143.06640625,350.09765625
854.00390625,996.58203125,438.96484375,-782.2265625
-675.78125,-480.46875,-448.2421875,48.828125
-1000.0,-1000.0,-1000.0,-1000.0
278.3203125,46.875,-437.5,-187.98828125
-791.9921875,-786.62109375,479.98046875,-788.0859375
-18.06640625,112.3046875,-186.5234375,223.14453125
-1000.0,-1000.0,-1000.0,-1000.0
-224.609375,-252.44140625,-748.53515625,-272.94921875
-805.6640625,-809.08203125,340.33203125,-818.359375
230.95703125,245.60546875,47.36328125,541.015625
-1000.0,-1000.0,-1000.0,-1000.0
-271.484375,-456.54296875,-922.8515625,-646.484375
-816.40625,-902.34375,168.9453125,921.38671875
503.90625,620.60546875,334.9609375,-955.56640625
-1000.0,-962.40234375,-786.62109375,-369.62890625
-666.015625,-945.3125,-1000.0,-1000.0
915.52734375,557.6171875,-93.26171875,185.546875
-985.83984375,-871.58203125,508.30078125,-755.859375
-454.1015625,-279.78515625,-479.00390625,137.20703125
-1000.0,-1000.0,-1000.0,-1000.0
237.79296875,29.78515625,-390.13671875,-172.8515625
-783.69140625,-797.36328125,462.890625,-810.05859375
91.796875,192.3828125,-169.921875,234.86328125
-1000.0,-1000.0,-1000.0,-1000.0
-250.9765625,-263.18359375,-675.29296875,-322.75390625
-807.12890625,-807.12890625,362.79296875,-848.14453125
237.3046875,302.734375,7.32421875,627.9296875
-1000.0,-1000.0,-1000.0,-987.3046875
-371.09375,-569.3359375,-904.78515625,-814.94140625
-857.91015625,-973.14453125,42.48046875,728.515625
589.84375,730.95703125,302.734375,-861.81640625
-1000.0,-823.2421875,-698.73046875,-201.66015625
-869.62890625,-1000.0,-1000.0,-1000.0
662.59765625,327.1484375,-268.06640625,43.45703125
-876.46484375,-825.68359375,419.921875,-764.16015625
-261.71875,-139.16015625,-369.62890625,201.171875
-1000.0,-1000.0,-1000.0,-1000.0
-5.859375,-176.7578125,-595.21484375,-270.01953125
-775.390625,-805.17578125,393.5546875,-800.78125
206.54296875,229.4921875,-52.734375,323.2421875
-1000.0,-1000.0,-1000.0,-1000.0
-268.5546875,-304.19921875,-859.375,-457.03125
-796.875,-816.89453125,224.609375,-910.15625
259.27734375,381.8359375,204.58984375,744.62890625
-1000.0,-1000.0,-914.0625,-865.72265625
-398.92578125,-648.92578125,-983.3984375,-958.0078125
-946.77734375,887.6953125,-0.9765625,547.36328125
745.1171875,883.7890625,526.3671875,-817.87109375
-837.40234375,-635.25390625,-482.421875,-78.125
-1000.0,-1000.0,-1000.0,-1000.0
490.234375,181.15234375,-295.8984375,-64.453125
-824.21875,-791.015625,506.34765625,-771.97265625
-132.8125,12.20703125,-337.40234375,210.9375
-1000.0,-1000.0,-1000.0,-1000.0
-108.3984375,-227.5390625,-586.42578125,-274.4140625
-786.1328125,-808.10546875,472.16796875,-809.08203125
217.28515625,236.328125,11.71875,469.23828125
-1000.0,-1000.0,-1000.0,-1000.0
-271.97265625,-372.0703125,-828.125,-536.62109375
-808.10546875,-854.00390625,257.8125,-988.76953125
420.8984375,520.01953125,174.8046875,931.640625
-1000.0,-1000.0,-893.5546875,-557.6171875
-582.51953125,-821.77734375,-987.79296875,-1000.0
995.60546875,736.328125,-143.06640625,336.42578125
888.18359375,-970.703125,389.6484375,-779.78515625
-619.140625,-418.9453125,-501.953125,60.05859375
-1000.0,-1000.0,-1000.0,-1000.0
266.11328125,39.0625,-440.4296875,-201.66015625
-790.52734375,-784.1796875,439.94140625,-790.0390625
-16.6015625,124.0234375,-215.33203125,225.09765625
-1000.0,-1000.0,-1000.0,-1000.0
-238.76953125,-253.90625,-739.2578125,-272.4609375
-810.546875,-809.5703125,277.34375,-819.3359375
233.88671875,248.53515625,28.80859375,544.921875
-1000.0,-1000.0,-1000.0,-1000.0
-287.109375,-485.83984375,-931.640625,-696.77734375
-820.80078125,-912.109375,52.734375,864.74609375
493.1640625,609.375,372.55859375,-927.734375
-1000.0,-961.42578125,-634.765625,-328.61328125
-747.0703125,-985.3515625,-1000.0,-1000.0
827.1484375,494.140625,-204.58984375,147.94921875
-979.00390625,-878.41796875,514.6484375,-762.20703125
-432.6171875,-266.6015625,-356.93359375,162.109375
-1000.0,-1000.0,-1000.0,-1000.0
101.5625,-93.26171875,-530.76171875,-261.23046875
-775.87890625,-793.9453125,493.65234375,-800.29296875
95.703125,197.265625,-24.90234375,234.375
-1000.0,-1000.0,-1000.0,-1000.0
-250.9765625,-263.671875,-805.6640625,-352.05078125
-807.12890625,-807.6171875,269.53125,-869.140625
237.3046875,318.84765625,39.55078125,675.29296875
-1000.0,-1000.0,-1000.0,-944.82421875
-373.046875,-573.73046875,-933.10546875,-827.1484375
-862.3046875,-983.3984375,139.6484375,720.703125
619.62890625,769.53125,437.01171875,-854.00390625
-989.74609375,-782.2265625,-669.921875,-185.05859375
-870.1171875,-1000.0,-1000.0,-1000.0
666.50390625,325.1953125,-195.3125,63.4765625
-867.67578125,-811.03515625,476.07421875,-760.7421875
-243.1640625,-96.19140625,-371.58203125,198.73046875
-1000.0,-1000.0,-1000.0,-1000.0
-3.41796875,-175.29296875,-552.734375,-272.4609375
-773.92578125,-801.7578125,375.48828125,-801.26953125
206.0546875,228.515625,-83.49609375,362.3046875
-1000.0,-1000.0,-1000.0,-1000.0
-269.53125,-303.7109375,-846.19140625,-458.0078125
-803.7109375,-821.77734375,193.359375,-933.10546875
318.359375,417.96875,115.234375,821.2890625
-1000.0,-1000.0,-950.1953125,-738.28125
-506.34765625,-711.42578125,-990.234375,-1000.0
-945.3125,879.39453125,-90.33203125,501.953125
770.01953125,906.25,415.52734375,-801.26953125
-821.2890625,-626.46484375,-544.921875,-78.61328125
-996.09375,-1000.0,-1000.0,-1000.0
508.7890625,230.46875,-285.15625,-1.46484375
-828.61328125,-804.6875,469.7265625,-786.1328125
-130.37109375,9.765625,-251.46484375,213.8671875
-1000.0,-1000.0,-1000.0,-1000.0
-126.953125,-237.3046875,-676.26953125,-273.92578125
-789.55078125,-812.98828125,351.5625,-811.5234375
219.7265625,239.2578125,35.64453125,479.4921875
-1000.0,-1000.0,-1000.0,-1000.0
-271.484375,-404.78515625,-907.71484375,-590.33203125
-809.08203125,-866.69921875,196.77734375,978.02734375
411.1328125,516.11328125,241.2109375,952.1484375
-1000.0,-1000.0,-861.328125,-529.296875
-639.6484375,-874.0234375,-1000.0,-1000.0
981.4453125,690.91796875,-111.328125,303.7109375
838.8671875,981.93359375,449.70703125,-831.0546875
-701.66015625,-502.44140625,-495.1171875,-15.13671875
-1000.0,-1000.0,-1000.0,-1000.0
209.47265625,13.671875,-323.2421875,-213.8671875
-786.62109375,-788.0859375,531.25,-794.921875
6.8359375,142.08984375,-268.06640625,226.07421875
-1000.0,-1000.0,-1000.0,-1000.0
-241.69921875,-256.34765625,-682.12890625,-271.97265625
-807.6171875,-807.6171875,336.42578125,-822.75390625
232.421875,264.16015625,-7.8125,573.2421875
-1000.0,-1000.0,-1000.0,-1000.0
-271.484375,-475.5859375,-909.1796875,-680.6640625
-817.87109375,-914.0625,123.046875,890.13671875
523.92578125,655.2734375,358.88671875,-918.9453125
-1000.0,-920.41015625,-700.1953125,-303.22265625
-755.37109375,-989.74609375,-1000.0,-1000.0
827.1484375,492.67578125,-166.50390625,145.01953125
-975.5859375,-857.421875,418.9453125,-759.765625
-427.734375,-221.6796875,-442.3828125,184.5703125
-1000.0,-1000.0,-1000.0,-1000.0
103.515625,-91.30859375,-507.8125,-266.11328125
-771.97265625,-791.015625,392.578125,-798.828125
143.5546875,203.61328125,-189.453125,265.625
-1000.0,-1000.0,-1000.0,-1000.0
-257.8125,-264.6484375,-794.921875,-369.62890625
-806.15234375,-807.6171875,244.62890625,-878.41796875
238.28125,321.2890625,166.50390625,702.63671875
-1000.0,-1000.0,-903.3203125,-900.87890625
-432.6171875,-615.72265625,-981.93359375,-881.8359375
-887.20703125,985.83984375,0.0,659.66796875
624.0234375,766.11328125,404.78515625,-845.21484375
-977.5390625,-780.76171875,-609.86328125,-169.43359375
-932.12890625,-1000.0,-1000.0,-1000.0
583.984375,263.18359375,-272.4609375,4.39453125
-855.95703125,-812.01171875,445.3125,-759.765625
-243.1640625,-98.6328125,-398.92578125,186.03515625
-1000.0,-1000.0,-1000.0,-1000.0
-15.625,-198.2421875,-554.6875,-183.59375
-775.87890625,-808.59375,519.53125,-813.96484375
207.51953125,232.91015625,4.8828125,365.234375
-1000.0,-1000.0,-1000.0,-1000.0
-269.53125,-328.61328125,-827.63671875,-492.67578125
-805.17578125,-831.54296875,268.5546875,-953.125
324.21875,424.8046875,118.65234375,838.8671875
-1000.0,-1000.0,-959.47265625,-715.33203125
-547.8515625,-747.55859375,-980.46875,-1000.0
-964.35546875,832.51953125,-5.859375,463.8671875
769.53125,932.6171875,433.59375,-799.8046875
-803.7109375,-571.2890625,-566.89453125,-43.9453125
-1000.0,-1000.0,-1000.0,-1000.0
397.94921875,119.62890625,-273.92578125,-85.9375
-806.640625,-788.57421875,436.5234375,-772.94921875
-84.47265625,53.7109375,-355.46875,212.40234375
-1000.0,-1000.0,-1000.0,-1000.0
-131.8359375,-240.72265625,-714.84375,-274.4140625
-786.62109375,-808.59375,269.04296875,-812.98828125
218.75,237.79296875,-22.4609375,502.9296875
-1000.0,-1000.0,-1000.0,-1000.0
-272.4609375,-389.6484375,-893.5546875,-590.33203125
-810.05859375,-862.3046875,131.34765625,972.16796875
436.5234375,545.8984375,308.10546875,978.515625
-1000.0,-1000.0,-744.140625,-494.62890625
-637.6953125,-871.09375,-1000.0,-1000.0
964.84375,668.9453125,-114.2578125,302.734375
895.01953125,-941.40625,474.12109375,-773.4375
-613.28125,-378.90625,-423.33984375,99.12109375
-1000.0,-1000.0,-1000.0,-1000.0
207.51953125,4.39453125,-462.890625,-234.375
-781.25,-785.15625,473.6328125,-796.875
28.80859375,149.90234375,-163.57421875,229.98046875
-1000.0,-1000.0,-1000.0,-1000.0
-244.140625,-257.32421875,-784.1796875,-301.7578125
-810.546875,-808.59375,339.35546875,-832.51953125
237.3046875,263.671875,90.33203125,572.75390625
-1000.0,-1000.0,-1000.0,-1000.0
-353.515625,-526.85546875,-924.31640625,-741.2109375
-845.21484375,-938.4765625,127.44140625,818.359375
533.69140625,649.90234375,322.265625,-906.25
-1000.0,-918.9453125,-752.9296875,-296.875
-804.19921875,-1000.0,-1000.0,-1000.0
772.94921875,420.8984375,-195.80078125,113.76953125
-968.75,-854.00390625,441.89453125,-761.71875
-435.05859375,-219.7265625,-435.546875,187.01171875
-1000.0,-1000.0,-1000.0,-1000.0
94.23828125,-130.859375,-487.79296875,-267.08984375
-771.484375,-800.29296875,449.70703125,-798.828125
157.71484375,211.9140625,-125.0,284.1796875
-1000.0,-1000.0,-1000.0,-1000.0
-259.765625,-275.87890625,-715.33203125,-375.48828125
-805.17578125,-811.03515625,342.28515625,-883.30078125
238.28125,349.609375,62.01171875,721.6796875
-1000.0,-1000.0,-977.5390625,-878.41796875
-435.05859375,-614.74609375,-926.7578125,-889.6484375
-894.53125,976.07421875,9.27734375,647.94921875
650.87890625,818.84765625,350.5859375,-835.44921875
-952.1484375,-721.19140625,-634.765625,-139.16015625
-931.640625,-1000.0,-1000.0,-1000.0
574.70703125,270.5078125,-266.11328125,11.23046875
-836.9140625,-801.26953125,455.078125,-763.671875
-171.38671875,-44.921875,-341.30859375,203.61328125
-1000.0,-1000.0,-1000.0,-1000.0
-21.97265625,-200.1953125,-628.90625,-272.94921875
-771.484375,-804.19921875,355.95703125,-804.6875
207.03125,231.4453125,-38.0859375,400.87890625
-1000.0,-1000.0,-1000.0,-1000.0
-270.5078125,-324.21875,-856.93359375,-506.34765625
-805.6640625,-830.56640625,211.9140625,-962.40234375
339.84375,454.1015625,295.41015625,865.72265625
-1000.0,-1000.0,-812.01171875,-679.19921875
-567.87109375,-774.4140625,-1000.0,-1000.0
-972.16796875,810.05859375,-53.7109375,451.171875
772.94921875,939.453125,531.73828125,-797.36328125
-805.17578125,-561.03515625,-432.6171875,-18.5546875
-1000.0,-1000.0,-1000.0,-1000.0
397.94921875,96.6796875,-349.12109375,-127.44140625
-809.08203125,-789.55078125,482.421875,-779.78515625
-76.66015625,55.6640625,-309.5703125,217.28515625
-1000.0,-1000.0,-1000.0,-1000.0
-180.6640625,-245.60546875,-649.4140625,-273.92578125
-798.828125,-812.5,349.12109375,-813.96484375
226.07421875,240.72265625,-30.2734375,510.25390625
-1000.0,-1000.0,-1000.0,-1000.0
-270.99609375,-446.2890625,-841.796875,-606.4453125
-811.03515625,-886.71875,232.91015625,964.35546875
436.5234375,544.921875,189.94140625,979.00390625
-1000.0,-1000.0,-853.02734375,-478.515625
-658.203125,-915.0390625,-1000.0,-1000.0
938.4765625,597.16796875,-187.98828125,232.421875
934.08203125,-918.45703125,412.109375,-769.04296875
-563.4765625,-347.16796875,-454.1015625,108.3984375
-1000.0,-1000.0,-1000.0,-1000.0
203.125,-17.08984375,-462.890625,-243.65234375
-774.4140625,-785.15625,458.49609375,-798.33984375
69.3359375,167.48046875,-169.921875,231.4453125
-1000.0,-1000.0,-1000.0,-1000.0
-249.51171875,-260.25390625,-760.7421875,-306.15234375
-807.12890625,-806.640625,287.59765625,-838.37890625
235.3515625,282.71484375,56.15234375,605.46875
-1000.0,-1000.0,-1000.0,-1000.0
-336.42578125,-511.23046875,-938.4765625,-748.53515625
-844.7265625,-940.4296875,29.78515625,804.19921875
568.359375,705.078125,364.2578125,-877.9296875
-1000.0,-865.72265625,-640.625,-237.79296875
-801.7578125,-1000.0,-1000.0,-1000.0
749.0234375,438.96484375,-238.76953125,116.2109375
-894.04296875,-836.9140625,542.48046875,-758.30078125
-292.96875,-162.109375,-262.6953125,194.82421875
-1000.0,-1000.0,-1000.0,-1000.0
87.890625,-133.30078125,-536.1328125,-269.53125
-763.671875,-795.8984375,387.6953125,-799.8046875
197.265625,217.7734375,-162.109375,306.640625
-1000.0,-1000.0,-1000.0,-1000.0
-265.625,-283.69140625,-806.15234375,-425.78125
-803.7109375,-813.4765625,259.27734375,-903.3203125
238.76953125,354.98046875,85.9375,738.28125
-1000.0,-1000.0,-981.93359375,-863.28125
-466.796875,-667.96875,-953.125,-917.48046875
-904.296875,936.03515625,67.3828125,613.76953125
638.671875,814.94140625,429.19921875,-831.54296875
-960.9375,-723.14453125,-626.953125,-136.23046875
-957.51953125,-1000.0,-1000.0,-1000.0
535.64453125,197.75390625,-233.88671875,-10.25390625
-843.75,-804.6875,437.98828125,-766.6015625
-186.5234375,-56.15234375,-395.5078125,205.56640625
-1000.0,-1000.0,-1000.0,-1000.0
-101.5625,-219.7265625,-590.8203125,-272.94921875
-788.57421875,-812.01171875,379.8828125,-805.6640625
217.28515625,236.81640625,-114.74609375,403.80859375
-1000.0,-1000.0,-1000.0,-1000.0
-269.04296875,-361.81640625,-824.70703125,-530.2734375
-805.17578125,-845.703125,177.734375,-977.5390625
340.33203125,463.8671875,157.2265625,878.90625
-1000.0,-1000.0,-894.53125,-660.15625
-561.03515625,-779.78515625,-1000.0,-1000.0
-993.1640625,784.66796875,-147.4609375,413.0859375
849.12109375,985.3515625,414.0625,-788.0859375
-706.54296875,-492.1875,-485.3515625,20.5078125
-1000.0,-1000.0,-1000.0,-1000.0
393.06640625,93.75,-403.80859375,-126.46484375
-795.8984375,-783.203125,469.7265625,-775.390625
-25.390625,96.19140625,-189.453125,215.8203125
-1000.0,-1000.0,-1000.0,-1000.0
-167.48046875,-251.46484375,-691.40625,-273.92578125
-790.52734375,-808.59375,376.953125,-815.4296875
222.65625,241.69921875,32.2265625,523.92578125
-1000.0,-1000.0,-1000.0,-1000.0
-272.4609375,-419.921875,-897.94921875,-623.046875
-814.453125,-882.8125,147.4609375,938.96484375
482.421875,595.21484375,417.48046875,-972.65625
-1000.0,-985.3515625,-673.33984375,-407.71484375
-660.64453125,-916.015625,-1000.0,-1000.0
924.8046875,601.5625,-125.9765625,239.74609375
988.76953125,-897.4609375,527.34375,-759.27734375
-472.16796875,-293.9453125,-436.5234375,115.234375
-1000.0,-1000.0,-1000.0,-1000.0
180.6640625,-37.59765625,-347.16796875,-169.921875
-770.99609375,-785.15625,518.5546875,-811.03515625
88.8671875,177.734375,-251.46484375,232.91015625
-1000.0,-1000.0,-1000.0,-1000.0
-251.46484375,-260.7421875,-714.84375,-315.4296875
-807.6171875,-808.10546875,318.359375,-840.8203125
243.65234375,285.64453125,18.06640625,598.6328125
-1000.0,-1000.0,-1000.0,-1000.0
-316.89453125,-524.90234375,-909.1796875,-791.50390625
-998.046875,917.48046875,10.25390625,753.90625
259.765625,457.03125,238.76953125,-871.58203125
-1000.0,-854.98046875,-659.66796875,-221.19140625
-861.81640625,-1000.0,-1000.0,-1000.0
650.87890625,317.3828125,-239.2578125,40.52734375
-899.90234375,-834.47265625,387.6953125,-765.625
-312.01171875,-166.9921875,-400.390625,201.66015625
-1000.0,-1000.0,-1000.0,-1000.0
2.9296875,-169.43359375,-570.3125,-269.53125
-775.87890625,-805.6640625,390.13671875,-800.29296875
206.0546875,224.12109375,-134.27734375,315.91796875
-1000.0,-1000.0,-1000.0,-1000.0
-265.625,-295.41015625,-820.3125,-434.5703125
-803.22265625,-817.87109375,214.84375,-922.8515625
259.765625,379.8828125,218.26171875,798.828125
-1000.0,-1000.0,-843.75,-789.0625
-463.37890625,-658.69140625,-996.58203125,-937.98828125
-928.7109375,924.31640625,-13.18359375,594.23828125
751.953125,882.32421875,435.546875,-820.80078125
-850.5859375,-638.671875,-573.73046875,-95.21484375
-948.73046875,-1000.0,-1000.0,-1000.0
575.1953125,225.5859375,-288.57421875,-23.4375
-830.56640625,-790.52734375,472.65625,-765.625
-138.18359375,3.90625,-340.33203125,206.54296875
-1000.0,-1000.0,-1000.0,-1000.0
-59.5703125,-218.26171875,-587.890625,-273.92578125
-776.3671875,-805.17578125,523.4375,-806.640625
211.42578125,233.88671875,42.48046875,432.12890625
-1000.0,-1000.0,-1000.0,-1000.0
-271.97265625,-348.6328125,-844.23828125,-527.83203125
-807.12890625,-843.26171875,249.51171875,-984.86328125
399.4140625,500.0,199.70703125,916.015625
-1000.0,-1000.0,-888.18359375,-590.33203125
-569.82421875,-810.546875,-997.55859375,-1000.0
-990.234375,758.30078125,-114.74609375,368.1640625
856.93359375,997.0703125,424.31640625,-782.2265625
-660.64453125,-468.26171875,-500.0,35.64453125
-1000.0,-1000.0,-1000.0,-1000.0
278.3203125,44.43359375,-318.359375,-151.85546875
-792.48046875,-788.0859375,428.7109375,-780.2734375
-18.06640625,98.14453125,-316.40625,218.75
-1000.0,-1000.0,-1000.0,-1000.0
-238.76953125,-250.0,-748.046875,-273.4375
-809.5703125,-811.03515625,237.79296875,-816.40625
233.3984375,240.72265625,5.37109375,520.01953125
-1000.0,-1000.0,-1000.0,-1000.0
-274.90234375,-477.5390625,-902.34375,-684.5703125
-813.96484375,-904.78515625,106.4453125,884.765625
452.63671875,582.03125,329.58984375,-960.44921875
-1000.0,-980.95703125,-688.96484375,-387.20703125
-750.0,-986.328125,-1000.0,-1000.0
822.75390625,489.74609375,-202.1484375,153.80859375
-996.58203125,-888.18359375,456.54296875,-764.16015625
-470.703125,-293.9453125,-418.45703125,162.109375
-1000.0,-1000.0,-1000.0,-1000.0
125.48828125,-70.80078125,-520.5078125,-261.23046875
-775.390625,-791.015625,453.61328125,-799.31640625
93.75,193.84765625,-93.26171875,233.88671875
-1000.0,-1000.0,-1000.0,-1000.0
-250.9765625,-263.671875,-785.15625,-335.44921875
-807.6171875,-806.640625,386.23046875,-859.86328125
237.3046875,317.3828125,127.9296875,660.64453125
-1000.0,-1000.0,-1000.0,-968.75
-371.09375,-550.29296875,-943.359375,-788.0859375
-862.3046875,-971.19140625,65.4296875,766.6015625
624.51171875,767.578125,343.75,-862.3046875
-1000.0,-790.52734375,-689.453125,-191.40625
-812.5,-1000.0,-1000.0,-1000.0
741.69921875,374.51171875,-208.0078125,72.265625
-877.44140625,-813.96484375,468.75,-759.765625
-244.62890625,-101.5625,-416.015625,198.2421875
-1000.0,-1000.0,-1000.0,-1000.0
20.01953125,-166.9921875,-507.32421875,-271.484375
-770.99609375,-799.8046875,461.9140625,-799.8046875
203.61328125,227.5390625,-62.98828125,344.7265625
-1000.0,-1000.0,-1000.0,-1000.0
-267.578125,-303.22265625,-762.6953125,-436.5234375
-803.7109375,-821.2890625,291.50390625,-920.8984375
290.52734375,397.94921875,87.40234375,803.22265625
-1000.0,-1000.0,-973.14453125,-788.57421875
-495.60546875,-705.078125,-919.43359375,-930.6640625
-934.5703125,892.08984375,76.171875,610.3515625
731.4453125,874.0234375,428.22265625,-823.73046875
-837.890625,-642.08984375,-568.84765625,-78.125
-1000.0,-1000.0,-1000.0,-1000.0
428.22265625,146.97265625,-341.796875,-71.77734375
-819.82421875,-798.828125,419.43359375,-772.94921875
-135.25390625,-13.18359375,-307.6171875,211.9140625
-1000.0,-1000.0,-1000.0,-1000.0
-126.46484375,-233.3984375,-694.3359375,-272.94921875
-789.55078125,-813.4765625,333.0078125,-808.10546875
219.7265625,239.2578125,6.34765625,437.01171875
-1000.0,-1000.0,-1000.0,-1000.0
-270.5078125,-393.5546875,-882.32421875,-566.89453125
-808.10546875,-860.83984375,167.96875,986.328125
393.06640625,503.41796875,269.04296875,943.359375
-1000.0,-1000.0,-804.19921875,-552.24609375
-608.3984375,-844.7265625,-1000.0,-1000.0
973.6328125,700.68359375,-58.10546875,328.61328125
895.01953125,-968.75,570.3125,-778.80859375
-621.09375,-425.78125,-406.25,59.08203125
-1000.0,-1000.0,-1000.0,-1000.0
259.765625,39.0625,-390.13671875,-197.265625
-787.109375,-782.2265625,478.02734375,-789.0625
4.39453125,140.13671875,-257.8125,224.609375
-1000.0,-1000.0,-1000.0,-1000.0
-229.98046875,-256.8359375,-660.15625,-272.4609375
-804.6875,-807.12890625,458.984375,-821.2890625
230.95703125,263.671875,39.0625,566.89453125
-1000.0,-1000.0,-1000.0,-1000.0
-271.97265625,-461.42578125,-856.93359375,-637.20703125
-817.87109375,-908.203125,208.0078125,921.875
527.34375,655.2734375,287.59765625,-934.5703125
-1000.0,-928.7109375,-761.23046875,-315.4296875
-699.21875,-963.37890625,-1000.0,-1000.0
889.6484375,537.109375,-213.37890625,155.76171875
-990.234375,-864.2578125,429.6875,-760.25390625
-432.12890625,-229.4921875,-425.78125,172.36328125
-1000.0,-1000.0,-1000.0,-1000.0
113.76953125,-83.0078125,-497.0703125,-263.671875
-773.92578125,-790.0390625,450.1953125,-800.29296875
111.328125,198.73046875,-127.9296875,250.0
-1000.0,-1000.0,-1000.0,-1000.0
-253.41796875,-263.671875,-794.921875,-375.48828125
-808.59375,-807.6171875,213.37890625,-874.51171875
239.2578125,306.640625,78.125,669.43359375
-1000.0,-1000.0,-969.7265625,-940.4296875
-428.22265625,-613.76953125,-969.7265625,-871.09375
-883.7890625,991.2109375,-29.78515625,664.55078125
606.4453125,744.140625,419.921875,-843.75
-1000.0,-831.54296875,-577.1484375,-208.984375
-870.60546875,-1000.0,-1000.0,-1000.0
670.41015625,353.02734375,-202.63671875,107.91015625
-866.69921875,-832.51953125,521.97265625,-777.34375
-243.1640625,-125.9765625,-266.11328125,203.61328125
-1000.0,-1000.0,-1000.0,-1000.0
-16.11328125,-193.359375,-588.8671875,-271.484375
-775.87890625,-809.08203125,376.953125,-801.26953125
207.51953125,231.93359375,-130.37109375,355.95703125
-1000.0,-1000.0,-1000.0,-1000.0
-269.04296875,-313.96484375,-845.703125,-463.8671875
-803.7109375,-826.66015625,223.14453125,-938.96484375
319.82421875,426.7578125,155.76171875,831.0546875
-1000.0,-1000.0,-950.68359375,-756.8359375
-510.7421875,-685.05859375,-925.78125,-941.89453125
-946.2890625,913.57421875,97.65625,595.21484375
766.6015625,920.8984375,470.21484375,-815.91796875
-811.5234375,-578.61328125,-541.9921875,-54.6875
-1000.0,-1000.0,-1000.0,-1000.0
451.171875,160.15625,-264.6484375,-61.03515625
-811.03515625,-785.64453125,480.95703125,-769.04296875
-80.078125,51.7578125,-336.42578125,209.9609375
-1000.0,-1000.0,-1000.0,-1000.0
-120.60546875,-233.88671875,-672.8515625,-274.4140625
-783.69140625,-806.15234375,327.1484375,-811.03515625
217.28515625,235.83984375,-6.8359375,487.79296875
-1000.0,-1000.0,-1000.0,-1000.0
-272.4609375,-377.9296875,-868.65234375,-559.08203125
-810.05859375,-857.421875,170.41015625,990.72265625
436.5234375,535.64453125,214.35546875,965.8203125
-1000.0,-1000.0,-837.40234375,-500.9765625
-623.046875,-856.93359375,-991.2109375,-1000.0
974.12109375,687.98828125,-140.13671875,296.875
891.6015625,-949.21875,437.98828125,-775.390625
-611.81640625,-388.671875,-468.75,72.265625
-1000.0,-1000.0,-1000.0,-1000.0
211.9140625,9.27734375,-441.89453125,-225.5859375
-787.109375,-786.62109375,450.68359375,-796.38671875
-15.625,132.8125,-165.0390625,229.00390625
-1000.0,-1000.0,-1000.0,-1000.0
-238.76953125,-254.39453125,-746.58203125,-290.0390625
-813.4765625,-810.546875,311.5234375,-828.61328125
237.79296875,252.44140625,145.99609375,572.265625
-1000.0,-1000.0,-951.66015625,-1000.0
-350.09765625,-523.92578125,-951.66015625,-739.2578125
-843.75,-935.546875,100.5859375,829.1015625
517.578125,633.7890625,297.36328125,-923.33984375
-1000.0,-933.59375,-764.16015625,-328.125
-801.26953125,-1000.0,-1000.0,-1000.0
771.484375,429.19921875,-155.76171875,119.62890625
-968.75,-860.3515625,507.32421875,-763.18359375
-431.15234375,-231.4453125,-428.22265625,186.5234375
-1000.0,-1000.0,-1000.0,-1000.0
132.32421875,-88.8671875,-395.01953125,-228.515625
-877.9296875,-904.296875,426.26953125,-902.83203125
-38.0859375,26.85546875,-292.96875,83.0078125
-1000.0,-1000.0,-1000.0,-1000.0
-255.859375,-263.671875,-711.9140625,-346.19140625
-810.05859375,-812.98828125,387.20703125,-877.44140625
236.81640625,343.75,48.828125,705.56640625
-1000.0,-1000.0,-1000.0,-923.33984375
-391.6015625,-586.42578125,-935.546875,-811.03515625
-870.60546875,-996.58203125,74.70703125,758.7890625
622.0703125,802.24609375,398.92578125,-848.14453125
-982.421875,-743.1640625,-646.97265625,-135.7421875
-895.99609375,-1000.0,-1000.0,-1000.0
618.65234375,303.7109375,-259.765625,22.94921875
-847.16796875,-803.7109375,408.203125,-754.8828125
-184.08203125,-57.12890625,-366.2109375,183.59375
-1000.0,-1000.0,-1000.0,-1000.0
-20.5078125,-187.01171875,-575.68359375,-184.5703125
-772.4609375,-801.26953125,400.390625,-814.453125
207.03125,229.4921875,-76.66015625,390.625
-1000.0,-1000.0,-1000.0,-1000.0
-270.5078125,-313.4765625,-840.8203125,-488.76953125
-804.6875,-825.68359375,187.5,-952.63671875
339.35546875,432.6171875,266.11328125,855.46875
-1000.0,-1000.0,-781.25,-692.3828125
-545.41015625,-746.58203125,-1000.0,-1000.0
-960.44921875,839.84375,-105.95703125,472.16796875
768.06640625,923.828125,408.203125,-803.7109375
-800.78125,-575.68359375,-540.52734375,-48.828125
-1000.0,-1000.0,-1000.0,-1000.0
420.8984375,125.48828125,-338.8671875,-93.26171875
-872.0703125,-848.6328125,424.31640625,-834.9609375
-205.078125,-56.15234375,-343.75,127.9296875
-1000.0,-1000.0,-1000.0,-1000.0
-166.015625,-242.67578125,-653.80859375,-273.4375
-800.78125,-815.91796875,474.12109375,-814.94140625
225.09765625,240.72265625,70.80078125,482.421875
-1000.0,-1000.0,-1000.0,-1000.0
-271.484375,-433.59375,-870.1171875,-607.91015625
-811.03515625,-880.37109375,240.72265625,961.9140625
436.5234375,536.1328125,204.58984375,969.7265625
-1000.0,-1000.0,-909.1796875,-500.9765625
-666.50390625,-901.3671875,-989.2578125,-1000.0
968.26171875,647.4609375,-101.07421875,274.4140625
846.19140625,-990.234375,415.52734375,-826.66015625
-699.21875,-459.9609375,-499.51171875,2.9296875
-1000.0,-1000.0,-1000.0,-1000.0
204.1015625,-8.7890625,-342.7734375,-218.26171875
-779.78515625,-788.0859375,450.68359375,-794.921875
58.59375,163.0859375,-256.34765625,227.05078125
-1000.0,-1000.0,-1000.0,-1000.0
-248.046875,-259.27734375,-782.71484375,-291.50390625
-805.6640625,-806.15234375,242.1875,-831.54296875
233.3984375,277.83203125,14.6484375,593.26171875
-1000.0,-1000.0,-1000.0,-1000.0
-301.7578125,-491.69921875,-926.7578125,-722.16796875
-829.58984375,-925.78125,89.35546875,836.42578125
540.0390625,684.08203125,359.375,-893.5546875
-1000.0,-888.18359375,-658.69140625,-262.20703125
-781.25,-1000.0,-1000.0,-1000.0
778.3203125,459.47265625,-272.4609375,121.58203125
-923.33984375,-845.703125,455.56640625,-759.27734375
-340.33203125,-187.5,-344.23828125,194.3359375
-1000.0,-1000.0,-1000.0,-1000.0
90.8203125,-114.74609375,-541.9921875,-268.5546875
-767.08984375,-793.45703125,467.7734375,-799.31640625
173.828125,211.42578125,-47.36328125,286.62109375
-1000.0,-1000.0,-1000.0,-1000.0
-262.20703125,-274.90234375,-848.14453125,-412.59765625
-805.6640625,-811.03515625,293.45703125,-895.01953125
239.2578125,337.890625,157.71484375,715.33203125
-1000.0,-1000.0,-999.51171875,-889.6484375
-467.7734375,-648.92578125,-968.26171875,-902.83203125
-902.34375,955.56640625,44.921875,631.8359375
630.859375,791.015625,396.484375,-839.84375
-980.95703125,-754.39453125,-637.20703125,-160.15625
-929.6875,-1000.0,-1000.0,-1000.0
582.03125,229.00390625,-209.47265625,-6.8359375
-854.98046875,-807.6171875,514.16015625,-768.06640625
-222.65625,-75.68359375,-373.53515625,206.0546875
-1000.0,-1000.0,-1000.0,-1000.0
-62.98828125,-212.40234375,-530.76171875,-272.4609375
-783.69140625,-811.03515625,471.19140625,-803.7109375
212.890625,235.3515625,-33.69140625,394.53125
-1000.0,-1000.0,-1000.0,-1000.0
-269.53125,-344.7265625,-792.96875,-498.046875
-805.17578125,-838.37890625,295.8984375,-957.51953125
339.84375,454.58984375,126.46484375,859.375
-1000.0,-1000.0,-914.0625,-683.59375
-560.546875,-761.71875,-956.0546875,-1000.0
-980.46875,811.03515625,-114.2578125,440.91796875
810.546875,963.37890625,394.53125,-791.50390625
-755.37109375,-527.34375,-528.80859375,0.0
-1000.0,-1000.0,-1000.0,-1000.0
393.5546875,120.60546875,-349.609375,-103.515625
-797.8515625,-783.69140625,435.05859375,-772.4609375
-41.9921875,82.51953125,-269.53125,213.37890625
-1000.0,-1000.0,-1000.0,-1000.0
-136.23046875,-246.09375,-730.95703125,-274.4140625
-783.69140625,-808.10546875,302.24609375,-814.94140625
218.26171875,238.28125,33.69140625,517.578125
-1000.0,-1000.0,-1000.0,-1000.0
-272.4609375,-411.1328125,-918.9453125,-622.0703125
-811.5234375,-873.53515625,123.53515625,973.6328125
441.40625,564.94140625,260.7421875,939.94140625
-1000.0,-1000.0,-808.10546875,-551.7578125
-657.71484375,-897.4609375,-1000.0,-1000.0
935.546875,628.41796875,-172.36328125,261.23046875
945.3125,-920.8984375,525.87890625,-772.94921875
-543.9453125,-338.8671875,-359.86328125,105.46875
-1000.0,-1000.0,-1000.0,-1000.0
199.70703125,-22.94921875,-421.38671875,-248.046875
-776.3671875,-786.62109375,510.7421875,-800.78125
60.546875,168.9453125,-195.80078125,239.74609375
-1000.0,-1000.0,-1000.0,-1000.0
-192.87109375,-204.58984375,-709.9609375,-266.6015625
-956.0546875,-955.56640625,217.7734375,-988.28125
-40.0390625,-6.8359375,-160.64453125,315.91796875
-1000.0,-1000.0,-1000.0,-1000.0
-365.72265625,-546.38671875,-866.69921875,-739.2578125
-861.328125,-964.35546875,158.69140625,805.17578125
536.62109375,672.8515625,296.875,-898.4375
-1000.0,-898.92578125,-724.12109375,-276.3671875
-798.33984375,-1000.0,-1000.0,-1000.0
759.765625,395.01953125,-262.20703125,90.8203125
-932.6171875,-843.26171875,393.5546875,-762.6953125
-358.88671875,-189.453125,-432.12890625,197.265625
-1000.0,-1000.0,-1000.0,-1000.0
58.59375,-146.97265625,-552.24609375,-269.04296875
-771.484375,-800.78125,444.3359375,-799.8046875
187.98828125,217.7734375,-66.89453125,297.36328125
-1000.0,-1000.0,-1000.0,-1000.0
-263.18359375,-279.78515625,-814.94140625,-414.55078125
-804.19921875,-812.5,187.5,-901.3671875
237.79296875,362.3046875,116.69921875,742.67578125
-1000.0,-1000.0,-930.6640625,-860.3515625
-444.82421875,-628.90625,-979.00390625,-907.2265625
-911.1328125,959.9609375,8.30078125,621.58203125
698.73046875,841.30859375,496.58203125,-825.68359375
-903.80859375,-690.91796875,-498.046875,-103.515625
-939.453125,-1000.0,-1000.0,-1000.0
574.21875,252.9296875,-283.69140625,-0.48828125
-832.51953125,-797.8515625,565.4296875,-762.6953125
-152.34375,-29.296875,-204.1015625,204.1015625
-1000.0,-1000.0,-1000.0,-1000.0
-32.71484375,-208.0078125,-652.83203125,-273.4375
-772.4609375,-805.17578125,362.3046875,-805.17578125
208.49609375,232.91015625,-45.41015625,410.64453125
-1000.0,-1000.0,-1000.0,-1000.0
-271.97265625,-339.84375,-855.95703125,-523.92578125
-798.33984375,-834.47265625,204.58984375,-972.16796875
321.77734375,457.51953125,176.7578125,875.0
-1000.0,-1000.0,-882.32421875,-667.96875
-475.5859375,-762.6953125,-996.09375,-1000.0
-993.65234375,779.296875,26.3671875,434.08203125
811.5234375,966.796875,505.37109375,-792.96875
-734.375,-515.625,-547.36328125,-0.48828125
-1000.0,-1000.0,-1000.0,-1000.0
334.9609375,63.96484375,-259.765625,-128.41796875
-802.24609375,-789.55078125,492.1875,-778.3203125
-53.22265625,74.21875,-359.375,216.796875
-1000.0,-1000.0,-1000.0,-1000.0
-214.35546875,-247.55859375,-686.5234375,-273.92578125
-806.15234375,-812.01171875,305.6640625,-814.94140625
230.46875,240.72265625,-12.6953125,510.7421875
-1000.0,-1000.0,-1000.0,-1000.0
-270.01953125,-454.58984375,-885.25390625,-640.625
-810.546875,-892.578125,140.13671875,937.01171875
436.5234375,567.87109375,231.93359375,-998.046875
-1000.0,-1000.0,-801.7578125,-447.75390625
-654.296875,-933.10546875,-1000.0,-1000.0
928.22265625,572.75390625,-211.42578125,201.66015625
967.7734375,-903.3203125,407.2265625,-766.6015625
-505.859375,-315.91796875,-455.078125,134.765625
-1000.0,-1000.0,-1000.0,-1000.0
179.19921875,-35.64453125,-463.37890625,-251.46484375
-772.4609375,-785.64453125,457.51953125,-798.33984375
88.8671875,179.19921875,-156.73828125,231.4453125
-1000.0,-1000.0,-1000.0,-1000.0
-251.46484375,-261.71875,-788.57421875,-306.640625
-806.640625,-806.640625,263.18359375,-846.19140625
236.328125,290.0390625,229.4921875,643.06640625
-1000.0,-1000.0,-890.13671875,-984.86328125
-357.91015625,-526.85546875,-970.703125,-770.99609375
-854.00390625,-952.63671875,79.1015625,787.59765625
589.35546875,725.5859375,433.59375,-871.09375
-1000.0,-837.890625,-626.953125,-218.75
-803.22265625,-1000.0,-1000.0,-1000.0
747.55859375,402.83203125,-226.5625,97.65625
-886.71875,-829.1015625,466.30859375,-758.7890625
-270.5078125,-144.04296875,-399.90234375,195.80078125
-1000.0,-1000.0,-1000.0,-1000.0
54.6875,-149.90234375,-435.05859375,-270.01953125
-767.08984375,-798.828125,523.92578125,-800.29296875
200.1953125,221.19140625,-166.50390625,314.94140625
-1000.0,-1000.0,-1000.0,-1000.0
-264.6484375,-290.52734375,-807.12890625,-438.4765625
-803.7109375,-816.89453125,224.609375,-913.57421875
239.74609375,367.67578125,86.42578125,761.71875
-1000.0,-1000.0,-1000.0,-886.23046875
-452.63671875,-656.25,-873.53515625,-829.58984375
-948.2421875,945.3125,121.09375,763.18359375
615.234375,816.89453125,395.01953125,-843.26171875
-901.85546875,-693.359375,-583.0078125,-98.14453125
-1000.0,-1000.0,-1000.0,-1000.0
473.14453125,176.7578125,-290.52734375,-65.91796875
-829.1015625,-800.29296875,411.62109375,-773.4375
-152.34375,-28.3203125,-336.42578125,213.37890625
-1000.0,-1000.0,-1000.0,-1000.0
-88.37890625,-204.1015625,-652.34375,-253.90625
-843.75,-867.1875,303.22265625,-862.3046875
128.90625,148.4375,-86.9140625,329.1015625
-1000.0,-1000.0,-1000.0,-1000.0
-270.01953125,-365.72265625,-850.09765625,-528.80859375
-808.59375,-851.07421875,122.55859375,-993.65234375
364.74609375,482.421875,263.671875,926.7578125
-1000.0,-1000.0,-735.3515625,-573.2421875
-562.98828125,-806.640625,-1000.0,-1000.0
-997.55859375,751.953125,-143.5546875,359.86328125
872.0703125,-991.69921875,449.21875,-781.25
-659.1796875,-457.51953125,-469.7265625,39.0625
-1000.0,-1000.0,-1000.0,-1000.0
335.44921875,66.89453125,-375.9765625,-157.2265625
-787.109375,-773.92578125,451.66015625,-773.92578125
-39.55078125,100.5859375,-281.73828125,200.68359375
-1000.0,-1000.0,-1000.0,-1000.0
-116.2109375,-165.52734375,-655.76171875,-185.546875
-811.03515625,-818.84765625,448.73046875,-828.61328125
228.02734375,245.1171875,73.2421875,539.55078125
-1000.0,-1000.0,-1000.0,-1000.0
-271.97265625,-445.80078125,-881.34765625,-638.18359375
-815.4296875,-895.99609375,222.16796875,930.17578125
493.1640625,608.3984375,277.83203125,-966.30859375
-1000.0,-969.7265625,-828.61328125,-385.7421875
-663.57421875,-944.82421875,-1000.0,-1000.0
923.828125,563.96484375,-175.78125,188.96484375
991.2109375,-891.6015625,410.64453125,-764.6484375
-454.58984375,-284.66796875,-444.3359375,145.5078125
-1000.0,-1000.0,-1000.0,-1000.0
127.9296875,-73.2421875,-388.671875,-259.27734375
-774.4140625,-791.50390625,436.5234375,-800.78125
93.26171875,187.98828125,-201.66015625,234.375
-1000.0,-1000.0,-1000.0,-1000.0
-250.9765625,-261.71875,-817.87109375,-342.28515625
-807.6171875,-807.6171875,216.30859375,-852.5390625
237.3046875,288.57421875,61.03515625,618.65234375
-1000.0,-1000.0,-1000.0,-1000.0
-375.48828125,-573.73046875,-952.1484375,-811.03515625
-857.421875,-974.609375,40.52734375,729.98046875
573.2421875,718.26171875,370.1171875,-863.28125
-1000.0,-839.84375,-623.046875,-204.1015625
-868.65234375,-1000.0,-1000.0,-1000.0
656.73828125,328.125,-307.6171875,39.55078125
-874.0234375,-825.1953125,424.8046875,-765.13671875
-261.71875,-139.16015625,-333.49609375,201.66015625
-1000.0,-1000.0,-1000.0,-1000.0
3.90625,-169.43359375,-567.3828125,-270.01953125
-773.92578125,-802.734375,475.5859375,-800.29296875
205.56640625,228.02734375,-18.06640625,325.1953125
-1000.0,-1000.0,-1000.0,-1000.0
-268.06640625,-296.38671875,-849.609375,-440.91796875
-802.734375,-818.84765625,288.0859375,-924.8046875
296.875,403.80859375,175.78125,800.29296875
-1000.0,-1000.0,-964.84375,-775.390625
-468.26171875,-678.7109375,-1000.0,-968.75
-928.7109375,910.64453125,28.3203125,547.36328125
763.18359375,892.578125,449.21875,-813.4765625
-818.84765625,-620.1171875,-611.328125,-73.73046875
-993.65234375,-1000.0,-1000.0,-1000.0
512.20703125,189.94140625,-310.05859375,-54.19921875
-826.66015625,-790.52734375,463.8671875,-769.53125
-132.8125,9.765625,-293.45703125,209.47265625
-1000.0,-1000.0,-1000.0,-1000.0
-108.88671875,-228.02734375,-505.859375,-273.92578125
-786.1328125,-808.59375,560.546875,-809.08203125
217.28515625,236.81640625,-20.99609375,458.0078125
-1000.0,-1000.0,-1000.0,-1000.0
-270.99609375,-376.953125,-873.53515625,-558.10546875
-808.59375,-853.515625,152.34375,-999.0234375
395.99609375,500.9765625,181.15234375,925.78125
-1000.0,-1000.0,-850.5859375,-568.359375
-614.2578125,-852.5390625,-973.6328125,-1000.0
977.5390625,700.1953125,-136.71875,314.453125
874.0234375,-987.79296875,394.04296875,-778.80859375
-640.625,-453.61328125,-497.0703125,54.6875
-1000.0,-1000.0,-1000.0,-1000.0
230.95703125,24.90234375,-381.34765625,-201.171875
-789.0625,-789.0625,477.5390625,-791.015625
-15.625,111.81640625,-183.10546875,225.09765625
-1000.0,-1000.0,-1000.0,-1000.0
-239.2578125,-251.46484375,-752.9296875,-272.4609375
-810.05859375,-810.546875,278.3203125,-818.84765625
233.3984375,244.140625,15.13671875,542.48046875
-1000.0,-1000.0,-1000.0,-1000.0
-280.2734375,-479.4921875,-933.10546875,-689.453125
-818.84765625,-912.109375,93.26171875,872.55859375
499.51171875,617.67578125,338.8671875,-930.17578125
-1000.0,-957.51953125,-716.796875,-333.984375
-727.5390625,-975.5859375,-1000.0,-1000.0
849.609375,509.27734375,-170.41015625,162.59765625
-981.4453125,-872.55859375,541.50390625,-761.23046875
-435.546875,-255.859375,-338.37890625,165.0390625
-1000.0,-1000.0,-1000.0,-1000.0
123.046875,-73.2421875,-472.16796875,-262.6953125
-771.97265625,-789.0625,506.8359375,-799.31640625
123.53515625,199.70703125,-144.04296875,246.09375
-1000.0,-1000.0,-1000.0,-1000.0
-255.37109375,-265.13671875,-758.7890625,-342.28515625
-805.17578125,-807.12890625,306.15234375,-866.2109375
236.328125,324.21875,61.5234375,685.546875
-1000.0,-1000.0,-1000.0,-943.84765625
-371.09375,-570.3125,-895.5078125,-790.52734375
-861.328125,-980.46875,139.6484375,769.04296875
619.140625,768.06640625,329.1015625,-862.79296875
-989.2578125,-781.73828125,-675.78125,-176.26953125
-872.55859375,-1000.0,-1000.0,-1000.0
663.57421875,325.1953125,-267.578125,30.76171875
-868.1640625,-812.98828125,456.54296875,-764.16015625
-241.69921875,-101.07421875,-374.51171875,202.1484375
-1000.0,-1000.0,-1000.0,-1000.0
-15.625,-182.12890625,-573.73046875,-271.484375
-775.87890625,-804.19921875,418.9453125,-802.24609375
207.51953125,229.98046875,-64.94140625,360.83984375
-1000.0,-1000.0,-1000.0,-1000.0
-267.578125,-312.01171875,-835.44921875,-481.93359375
-805.17578125,-824.21875,185.546875,-942.3828125
295.41015625,401.3671875,156.25,818.359375
-1000.0,-1000.0,-899.90234375,-742.67578125
-533.203125,-739.2578125,-992.1875,-1000.0
-956.0546875,852.5390625,-116.69921875,480.46875
747.55859375,886.71875,429.19921875,-806.15234375
-824.21875,-630.859375,-489.74609375,-62.98828125
-1000.0,-1000.0,-1000.0,-1000.0
402.34375,126.953125,-337.890625,-90.33203125
-815.91796875,-795.41015625,536.62109375,-775.390625
-130.859375,10.25390625,-145.01953125,213.8671875
-1000.0,-1000.0,-1000.0,-1000.0
-126.953125,-236.328125,-703.61328125,-273.4375
-789.55078125,-812.01171875,389.16015625,-810.546875
219.7265625,238.76953125,28.80859375,471.6796875
-1000.0,-1000.0,-1000.0,-1000.0
-271.97265625,-389.6484375,-883.7890625,-573.73046875
-809.08203125,-861.328125,163.0859375,983.3984375
430.6640625,529.78515625,219.23828125,958.984375
-1000.0,-1000.0,-843.26171875,-524.4140625
-608.3984375,-840.8203125,-1000.0,-1000.0
980.95703125,703.125,18.06640625,312.5
892.578125,-945.80078125,536.62109375,-772.4609375
-620.60546875,-384.27734375,-508.7890625,83.49609375
-1000.0,-1000.0,-1000.0,-1000.0
254.39453125,31.73828125,-282.71484375,-177.734375
-783.69140625,-781.25,533.203125,-781.73828125
33.203125,149.4140625,-285.64453125,220.703125
-1000.0,-1000.0,-1000.0,-1000.0
-245.1171875,-257.8125,-724.12109375,-273.92578125
-806.15234375,-807.12890625,266.6015625,-822.75390625
232.421875,265.13671875,2.44140625,571.77734375
-1000.0,-1000.0,-1000.0,-1000.0
-281.25,-481.4453125,-916.50390625,-707.51953125
-821.2890625,-914.55078125,59.08203125,856.4453125
523.92578125,644.53125,282.71484375,-916.015625
-1000.0,-923.828125,-721.19140625,-304.19921875
-772.94921875,-1000.0,-1000.0,-1000.0
809.08203125,472.16796875,-255.859375,130.37109375
-976.07421875,-862.79296875,415.52734375,-761.23046875
-433.59375,-233.3984375,-414.55078125,179.6875
-1000.0,-1000.0,-1000.0,-1000.0
98.6328125,-116.2109375,-512.6953125,-264.6484375
-775.390625,-797.8515625,432.6171875,-800.29296875
108.3984375,202.63671875,-96.6796875,256.8359375
-1000.0,-1000.0,-1000.0,-1000.0
-252.44140625,-273.4375,-819.82421875,-386.23046875
-809.5703125,-811.5234375,227.5390625,-887.20703125
239.74609375,314.94140625,248.53515625,707.51953125
-1000.0,-1000.0,-843.75,-898.92578125
-446.2890625,-625.9765625,-994.140625,-886.23046875
-893.06640625,974.12109375,38.0859375,653.80859375
626.953125,772.4609375,438.96484375,-844.7265625
-978.515625,-779.78515625,-607.421875,-172.36328125
-931.15234375,-1000.0,-1000.0,-1000.0
583.0078125,269.04296875,-261.23046875,11.23046875
-854.98046875,-809.5703125,487.3046875,-766.11328125
-238.76953125,-86.42578125,-344.7265625,204.1015625
-1000.0,-1000.0,-1000.0,-1000.0
-16.11328125,-195.80078125,-519.04296875,-272.4609375
-775.390625,-806.15234375,489.74609375,-802.734375
207.51953125,231.4453125,-134.27734375,382.32421875
-1000.0,-1000.0,-1000.0,-1000.0
-270.5078125,-312.01171875,-834.47265625,-477.5390625
-803.22265625,-825.68359375,179.6875,-948.2421875
338.8671875,450.1953125,165.52734375,853.515625
-1000.0,-1000.0,-891.11328125,-699.70703125
-510.7421875,-713.37890625,-974.609375,-1000.0
-948.2421875,870.60546875,-8.7890625,491.2109375
780.76171875,941.89453125,477.5390625,-798.33984375
-783.203125,-550.29296875,-528.3203125,-9.27734375
-1000.0,-1000.0,-1000.0,-1000.0
420.41015625,145.5078125,-311.03515625,-95.703125
-806.15234375,-785.64453125,430.17578125,-771.484375
-69.82421875,58.10546875,-299.31640625,212.890625
-1000.0,-1000.0,-1000.0,-1000.0
-140.13671875,-247.55859375,-702.63671875,-283.69140625
-762.6953125,-786.62109375,283.203125,-782.71484375
164.55078125,184.08203125,-45.41015625,429.6875
-1000.0,-1000.0,-1000.0,-925.78125
5.37109375,-133.30078125,-765.625,-221.19140625
-832.03125,-891.6015625,200.1953125,947.75390625
430.6640625,522.94921875,331.54296875,966.30859375
-1000.0,-1000.0,-700.1953125,-469.23828125
-662.109375,-900.87890625,-1000.0,-1000.0
949.21875,625.9765625,-175.78125,257.8125
899.90234375,-944.3359375,456.0546875,-773.4375
-615.234375,-389.6484375,-438.4765625,75.68359375
-1000.0,-1000.0,-1000.0,-1000.0
208.984375,-18.5546875,-438.4765625,-238.28125
-783.69140625,-789.55078125,447.75390625,-800.29296875
11.71875,146.484375,-218.26171875,231.93359375
-1000.0,-1000.0,-1000.0,-1000.0
-242.1875,-256.34765625,-726.5625,-303.22265625
-812.01171875,-809.08203125,356.4453125,-833.984375
237.3046875,265.625,54.19921875,579.58984375
-1000.0,-1000.0,-1000.0,-1000.0
-354.4921875,-526.3671875,-919.43359375,-742.67578125
-845.703125,-941.40625,181.640625,815.4296875
533.69140625,668.9453125,335.9375,-898.4375
-1000.0,-904.78515625,-784.1796875,-286.62109375
-805.17578125,-1000.0,-1000.0,-1000.0
775.87890625,449.21875,-127.9296875,153.3203125
-981.4453125,-900.390625,423.33984375,-815.4296875
-441.40625,-277.34375,-462.890625,105.46875
-1000.0,-1000.0,-1000.0,-1000.0
87.40234375,-123.046875,-463.37890625,-270.99609375
-761.23046875,-790.0390625,392.08984375,-793.45703125
177.734375,195.80078125,-173.828125,273.92578125
-1000.0,-1000.0,-1000.0,-1000.0
-177.24609375,-179.19921875,-802.734375,-299.8046875
-812.98828125,-818.359375,243.65234375,-900.87890625
236.81640625,357.91015625,59.5703125,734.375
-1000.0,-1000.0,-1000.0,-868.1640625
-429.6875,-615.234375,-973.6328125,-884.765625
-893.06640625,978.515625,-4.39453125,653.3203125
653.80859375,816.89453125,426.7578125,-833.49609375
-946.77734375,-717.7734375,-565.91796875,-116.69921875
-933.59375,-1000.0,-1000.0,-1000.0
577.1484375,254.8828125,-333.984375,-5.37109375
-841.796875,-803.22265625,439.94140625,-764.6484375
-184.08203125,-56.15234375,-297.8515625,204.58984375
-1000.0,-1000.0,-1000.0,-1000.0
-34.1796875,-205.56640625,-625.0,-272.94921875
-774.90234375,-807.6171875,409.1796875,-805.17578125
208.49609375,233.88671875,-28.80859375,401.3671875
-1000.0,-1000.0,-1000.0,-1000.0
-270.01953125,-349.609375,-865.72265625,-524.90234375
-805.17578125,-839.84375,240.72265625,-968.75
340.33203125,436.5234375,304.6875,858.88671875
-1000.0,-1000.0,-839.84375,-688.4765625
-567.87109375,-792.48046875,-1000.0,-1000.0
-971.6796875,784.66796875,-2.9296875,433.10546875
770.5078125,940.4296875,476.07421875,-797.8515625
-800.29296875,-563.96484375,-553.22265625,-30.76171875
-1000.0,-1000.0,-1000.0,-1000.0
367.67578125,75.68359375,-360.83984375,-134.765625
-792.96875,-775.87890625,433.10546875,-767.08984375
-109.86328125,23.4375,-327.1484375,181.15234375
-1000.0,-1000.0,-1000.0,-1000.0
-8.30078125,-64.453125,-566.89453125,-92.28515625
-818.84765625,-829.58984375,426.7578125,-832.51953125
225.5859375,238.28125,35.15625,513.18359375
-1000.0,-1000.0,-1000.0,-1000.0
-270.99609375,-430.17578125,-829.58984375,-599.609375
-811.5234375,-883.7890625,227.5390625,964.35546875
448.2421875,576.171875,229.4921875,990.234375
-1000.0,-1000.0,-812.01171875,-464.35546875
-647.94921875,-891.11328125,-995.60546875,-1000.0
928.22265625,628.90625,-183.59375,250.9765625
982.91015625,-903.3203125,418.45703125,-767.578125
-484.86328125,-306.15234375,-462.40234375,130.37109375
-1000.0,-1000.0,-1000.0,-1000.0
201.171875,-8.30078125,-447.265625,-239.2578125
-770.01953125,-780.2734375,431.640625,-794.921875
86.9140625,181.15234375,-164.55078125,229.4921875
-1000.0,-1000.0,-1000.0,-1000.0
-251.46484375,-262.6953125,-805.17578125,-308.10546875
-806.640625,-806.15234375,224.609375,-838.8671875
235.83984375,283.69140625,98.6328125,606.93359375
-1000.0,-1000.0,-980.46875,-1000.0
-352.5390625,-525.390625,-949.70703125,-756.34765625
-848.6328125,-944.82421875,69.3359375,796.38671875
560.05859375,695.3125,383.30078125,-876.953125
-1000.0,-864.2578125,-644.53125,-231.4453125
-802.734375,-1000.0,-1000.0,-1000.0
758.7890625,385.25390625,-175.78125,93.26171875
-924.8046875,-840.8203125,550.78125,-760.25390625
-335.44921875,-181.640625,-317.3828125,196.77734375
-1000.0,-1000.0,-1000.0,-1000.0
27.34375,-158.203125,-519.53125,-269.04296875
-775.390625,-804.19921875,507.8125,-800.29296875
185.05859375,219.23828125,-59.08203125,296.38671875
-1000.0,-1000.0,-1000.0,-1000.0
-261.71875,-295.8984375,-806.15234375,-435.546875
-805.17578125,-818.84765625,272.4609375,-909.1796875
239.2578125,347.16796875,102.5390625,742.1875
-1000.0,-1000.0,-986.328125,-864.74609375
-469.7265625,-687.01171875,-927.734375,-911.62109375
-906.73828125,914.55078125,91.30859375,619.62890625
644.04296875,825.68359375,352.05078125,-832.51953125
-955.078125,-717.28515625,-651.85546875,-124.0234375
-959.9609375,-1000.0,-1000.0,-1000.0
524.90234375,198.73046875,-328.125,-37.109375
-833.0078125,-799.31640625,434.5703125,-770.5078125
-158.69140625,-31.73828125,-326.171875,208.49609375
-1000.0,-1000.0,-1000.0,-1000.0
-71.77734375,-215.8203125,-639.6484375,-273.4375
-780.76171875,-807.6171875,402.34375,-805.6640625
213.37890625,234.375,-11.71875,422.36328125
-1000.0,-1000.0,-1000.0,-1000.0
-271.484375,-340.33203125,-863.28125,-518.06640625
-806.640625,-839.35546875,142.578125,-985.83984375
388.18359375,493.65234375,213.37890625,926.7578125
-1000.0,-1000.0,-828.125,-588.37890625
-566.40625,-772.94921875,-1000.0,-1000.0
-998.53515625,791.9921875,-165.52734375,423.33984375
882.32421875,-994.62890625,441.89453125,-785.15625
-661.1328125,-456.54296875,-456.54296875,33.203125
-1000.0,-1000.0,-1000.0,-1000.0
394.04296875,102.05078125,-388.671875,-132.32421875
-796.38671875,-780.2734375,542.48046875,-775.390625
-23.92578125,103.515625,-77.1484375,215.8203125
-1000.0,-1000.0,-1000.0,-1000.0
-189.453125,-251.953125,-746.09375,-273.92578125
-796.38671875,-809.08203125,361.81640625,-815.91796875
225.5859375,239.74609375,36.62109375,521.484375
-1000.0,-1000.0,-1000.0,-1000.0
-270.99609375,-450.1953125,-910.64453125,-642.08984375
-811.5234375,-892.08984375,125.9765625,934.5703125
449.70703125,575.68359375,239.74609375,-989.2578125
-1000.0,-988.76953125,-809.5703125,-424.31640625
-708.49609375,-966.30859375,-1000.0,-1000.0
878.90625,529.78515625,-50.29296875,172.8515625
964.84375,-905.2734375,542.48046875,-766.6015625
-510.25390625,-319.3359375,-465.33203125,139.6484375
-1000.0,-1000.0,-1000.0,-1000.0
116.2109375,-83.984375,-338.8671875,-258.30078125
-779.78515625,-797.36328125,514.6484375,-801.26953125
75.68359375,175.29296875,-233.88671875,234.86328125
-1000.0,-1000.0,-1000.0,-1000.0
-248.53515625,-258.7890625,-792.96875,-344.23828125
-808.59375,-808.59375,218.26171875,-851.07421875
237.3046875,283.203125,36.62109375,609.375
-1000.0,-1000.0,-1000.0,-1000.0
-372.0703125,-569.3359375,-918.45703125,-815.91796875
-857.421875,-975.09765625,42.48046875,721.19140625
583.0078125,725.5859375,322.265625,-859.86328125
-1000.0,-839.35546875,-697.265625,-214.35546875
-824.70703125,-1000.0,-1000.0,-1000.0
710.9375,356.93359375,-222.16796875,83.49609375
-871.09375,-821.2890625,486.81640625,-759.765625
-247.0703125,-129.39453125,-370.1171875,197.265625
-1000.0,-1000.0,-1000.0,-1000.0
35.64453125,-156.25,-574.21875,-271.97265625
-769.04296875,-798.33984375,413.0859375,-799.8046875
202.1484375,225.5859375,-59.5703125,348.14453125
-1000.0,-1000.0,-1000.0,-1000.0
-269.04296875,-290.0390625,-821.77734375,-429.19921875
-802.734375,-816.40625,194.82421875,-921.875
309.5703125,409.66796875,272.94921875,816.40625
-1000.0,-1000.0,-787.59765625,-762.6953125
-470.21484375,-652.34375,-1000.0,-939.94140625
-928.22265625,934.08203125,-5.37109375,593.75
765.625,889.16015625,469.7265625,-818.359375
-825.1953125,-618.65234375,-542.96875,-67.3828125
-971.19140625,-1000.0,-1000.0,-1000.0
547.36328125,204.58984375,-277.83203125,-59.5703125
-831.0546875,-791.015625,530.76171875,-769.53125
-131.8359375,1.46484375,-300.29296875,209.9609375
-1000.0,-1000.0,-1000.0,-1000.0
-115.72265625,-228.515625,-569.82421875,-272.94921875
-787.109375,-810.05859375,486.328125,-807.12890625
218.26171875,237.3046875,-50.29296875,423.828125
-1000.0,-1000.0,-1000.0,-1000.0
-269.04296875,-383.30078125,-868.1640625,-566.40625
-807.12890625,-854.4921875,163.57421875,993.65234375
358.88671875,478.02734375,175.78125,917.96875
-1000.0,-1000.0,-886.23046875,-589.35546875
-622.0703125,-864.2578125,-1000.0,-1000.0
975.09765625,685.05859375,-91.796875,322.75390625
848.6328125,996.58203125,469.7265625,-783.69140625
-673.828125,-481.93359375,-495.1171875,37.109375
-1000.0,-1000.0,-1000.0,-1000.0
210.9375,12.20703125,-375.48828125,-211.9140625
-788.0859375,-792.48046875,409.1796875,-795.41015625
-15.625,107.421875,-250.9765625,227.05078125
-1000.0,-1000.0,-1000.0,-1000.0
-239.2578125,-250.48828125,-765.625,-272.4609375
-809.5703125,-810.546875,245.1171875,-819.82421875
232.91015625,246.58203125,12.20703125,553.7109375
-1000.0,-1000.0,-1000.0,-1000.0
-271.484375,-471.19140625,-894.53125,-662.109375
-816.89453125,-911.1328125,121.58203125,896.97265625
517.08984375,634.27734375,392.578125,-926.26953125
-1000.0,-952.63671875,-641.6015625,-312.5
-681.640625,-950.68359375,-1000.0,-1000.0
904.78515625,547.8515625,-207.03125,157.2265625
-990.234375,-863.76953125,480.46875,-759.765625
-437.5,-234.375,-385.25390625,175.29296875
-1000.0,-1000.0,-1000.0,-1000.0
149.4140625,-53.22265625,-461.42578125,-264.16015625
-768.5546875,-783.69140625,454.1015625,-798.33984375
145.5078125,199.70703125,-174.8046875,247.55859375
-1000.0,-1000.0,-1000.0,-1000.0
-258.7890625,-266.11328125,-791.50390625,-338.8671875
-803.22265625,-806.640625,339.35546875,-863.76953125
235.83984375,327.63671875,116.2109375,677.734375
-1000.0,-1000.0,-1000.0,-935.546875
-371.09375,-570.80078125,-932.6171875,-834.9609375
-861.328125,-978.02734375,139.6484375,714.84375
617.1875,762.6953125,378.90625,-855.46875
-982.91015625,-782.2265625,-702.1484375,-184.08203125
-895.01953125,-1000.0,-1000.0,-1000.0
634.27734375,307.6171875,-241.2109375,30.2734375
-863.76953125,-819.3359375,436.03515625,-764.6484375
-242.1875,-117.67578125,-387.6953125,202.1484375
-1000.0,-1000.0,-1000.0,-1000.0
-15.625,-193.84765625,-518.06640625,-270.5078125
-775.390625,-809.08203125,376.953125,-802.24609375
211.9140625,236.81640625,-131.8359375,335.9375
-1000.0,-1000.0,-1000.0,-1000.0
-229.4921875,-289.55078125,-830.078125,-480.95703125
-910.64453125,-934.5703125,125.0,-979.4921875
93.75,207.51953125,56.640625,755.859375
-1000.0,-1000.0,-892.08984375,-742.1875
-543.9453125,-759.27734375,-1000.0,-1000.0
-952.63671875,866.69921875,-48.828125,529.296875
703.61328125,796.875,368.65234375,-953.125
-898.92578125,-798.33984375,-632.32421875,-339.35546875
-1000.0,-1000.0,-1000.0,-1000.0
402.34375,133.7890625,-386.71875,-89.35546875
-817.87109375,-799.31640625,420.8984375,-786.1328125
-130.859375,16.11328125,-241.69921875,214.35546875
-1000.0,-1000.0,-1000.0,-1000.0
-130.859375,-237.3046875,-688.4765625,-277.83203125
-774.90234375,-794.921875,378.90625,-795.41015625
183.10546875,200.68359375,1.953125,442.3828125
-1000.0,-1000.0,-1000.0,-1000.0
-91.30859375,-192.87109375,-841.796875,-369.62890625
-827.1484375,-875.0,209.47265625,975.5859375
434.5703125,545.8984375,321.77734375,963.8671875
-1000.0,-1000.0,-807.12890625,-500.9765625
-590.33203125,-826.171875,-1000.0,-1000.0
981.4453125,721.19140625,-42.96875,320.3125
921.38671875,-933.59375,493.65234375,-774.90234375
-573.73046875,-355.46875,-509.765625,74.21875
-1000.0,-1000.0,-1000.0,-1000.0
265.625,41.015625,-380.859375,-198.2421875
-781.25,-778.3203125,446.2890625,-788.0859375
56.15234375,159.66796875,-259.27734375,233.3984375
-1000.0,-1000.0,-1000.0,-1000.0
-176.7578125,-204.58984375,-644.53125,-202.63671875
-987.79296875,-954.1015625,229.98046875,997.0703125
-143.06640625,-13.18359375,-245.60546875,194.3359375
-1000.0,-1000.0,-1000.0,-1000.0
-306.15234375,-500.48828125,-848.6328125,-686.03515625
-848.14453125,-935.05859375,138.18359375,854.98046875
517.578125,635.25390625,271.97265625,-927.734375
-1000.0,-926.26953125,-723.6328125,-317.87109375
-803.22265625,-1000.0,-1000.0,-1000.0
772.4609375,430.17578125,-260.7421875,117.67578125
-970.703125,-870.1171875,402.83203125,-763.18359375
-431.640625,-250.0,-424.31640625,178.7109375
-1000.0,-1000.0,-1000.0,-1000.0
73.2421875,-143.5546875,-505.859375,-264.6484375
-779.78515625,-805.6640625,402.34375,-801.26953125
98.6328125,205.078125,-144.53125,260.7421875
-1000.0,-1000.0,-1000.0,-1000.0
-250.48828125,-281.73828125,-811.03515625,-400.390625
-811.03515625,-814.94140625,231.93359375,-889.16015625
240.72265625,320.3125,166.015625,698.2421875
-1000.0,-1000.0,-910.64453125,-908.203125
-455.078125,-632.32421875,-970.703125,-896.484375
-896.97265625,963.8671875,23.92578125,661.1328125
629.39453125,793.9453125,402.34375,-895.5078125
-982.421875,-761.71875,-606.4453125,-249.51171875
-921.38671875,-1000.0,-1000.0,-1000.0
584.47265625,274.90234375,-276.85546875,19.53125
-843.75,-803.7109375,553.7109375,-766.6015625
-191.40625,-58.59375,-248.53515625,203.125
-1000.0,-1000.0,-1000.0,-1000.0
-20.01953125,-187.5,-566.40625,-273.4375
-772.4609375,-801.26953125,463.8671875,-802.734375
207.51953125,229.4921875,-43.9453125,400.87890625
-1000.0,-1000.0,-1000.0,-1000.0
-270.5078125,-306.640625,-811.03515625,-465.8203125
-803.22265625,-824.70703125,276.3671875,-943.84765625
338.8671875,462.890625,205.078125,864.74609375
-1000.0,-1000.0,-886.71875,-688.4765625
-508.7890625,-716.30859375,-952.63671875,-991.69921875
-957.03125,864.2578125,70.3125,520.99609375
812.01171875,957.03125,382.32421875,-802.734375
-738.28125,-521.97265625,-591.796875,-12.20703125
-1000.0,-1000.0,-1000.0,-1000.0
405.76171875,133.30078125,-367.1875,-104.98046875
-804.19921875,-785.64453125,441.40625,-773.92578125
-64.453125,62.01171875,-318.359375,213.8671875
-1000.0,-1000.0,-1000.0,-1000.0
-151.85546875,-247.0703125,-670.8984375,-273.92578125
-790.0390625,-811.5234375,368.1640625,-813.96484375
221.19140625,240.234375,16.6015625,497.0703125
-1000.0,-1000.0,-1000.0,-1000.0
-271.484375,-442.87109375,-877.9296875,-633.7890625
-810.546875,-883.30078125,93.26171875,948.2421875
425.78125,527.83203125,218.75,976.5625
-1000.0,-1000.0,-790.52734375,-490.72265625
-660.15625,-934.5703125,-1000.0,-1000.0
949.21875,582.03125,-221.19140625,224.12109375
896.97265625,-948.2421875,435.546875,-772.4609375
-609.375,-400.390625,-407.2265625,77.63671875
-1000.0,-1000.0,-1000.0,-1000.0
166.015625,-46.875,-446.77734375,-243.65234375
-785.64453125,-795.41015625,529.78515625,-802.734375
23.92578125,151.3671875,-52.24609375,233.3984375
-1000.0,-1000.0,-1000.0,-1000.0
-243.1640625,-256.34765625,-802.24609375,-316.40625
-811.03515625,-808.59375,330.078125,-839.84375
237.3046875,274.90234375,89.35546875,592.7734375
-1000.0,-1000.0,-1000.0,-1000.0
-351.5625,-521.97265625,-924.31640625,-742.67578125
-848.6328125,-946.2890625,84.9609375,811.03515625
561.03515625,703.125,318.359375,-886.23046875
-1000.0,-873.046875,-702.63671875,-256.34765625
-794.43359375,-1000.0,-1000.0,-1000.0
748.53515625,438.4765625,-118.1640625,118.1640625
-885.25390625,-831.54296875,534.66796875,-759.27734375
-275.87890625,-149.4140625,-452.63671875,194.3359375
-1000.0,-1000.0,-1000.0,-1000.0
87.40234375,-115.72265625,-406.73828125,-270.01953125
-763.18359375,-790.0390625,500.48828125,-798.828125
196.77734375,219.23828125,-161.1328125,308.59375
-1000.0,-1000.0,-1000.0,-1000.0
-266.11328125,-269.53125,-801.7578125,-405.2734375
-802.734375,-807.6171875,233.3984375,-896.97265625
250.9765625,372.55859375,120.60546875,745.60546875
-1000.0,-1000.0,-934.5703125,-854.00390625
-450.1953125,-634.27734375,-949.70703125,-906.73828125
-906.73828125,961.9140625,2.9296875,628.41796875
682.12890625,830.56640625,368.1640625,-831.54296875
-921.38671875,-697.265625,-622.0703125,-119.62890625
-938.4765625,-1000.0,-1000.0,-1000.0
579.1015625,228.515625,-336.9140625,-22.94921875
-846.19140625,-802.734375,437.5,-768.06640625
-180.17578125,-54.19921875,-318.84765625,207.03125
-1000.0,-1000.0,-1000.0,-1000.0
-96.19140625,-219.7265625,-625.0,-272.94921875
-787.109375,-812.5,405.76171875,-805.6640625
216.30859375,237.3046875,8.30078125,401.3671875
-1000.0,-1000.0,-1000.0,-1000.0
-269.04296875,-374.51171875,-859.375,-533.69140625
-805.6640625,-849.609375,132.8125,-978.02734375
339.84375,438.4765625,368.1640625,875.0
-1000.0,-1000.0,-674.31640625,-654.78515625
-583.984375,-824.21875,-1000.0,-1000.0
-984.86328125,741.2109375,-88.8671875,372.55859375
782.71484375,959.47265625,465.33203125,-788.57421875
-776.3671875,-541.9921875,-505.37109375,-0.48828125
-1000.0,-1000.0,-1000.0,-1000.0
314.94140625,61.03515625,-334.9609375,-145.01953125
-797.36328125,-789.55078125,488.28125,-782.2265625
-38.0859375,85.9375,-273.4375,219.23828125
-1000.0,-1000.0,-1000.0,-1000.0
-196.77734375,-248.53515625,-625.48828125,-273.4375
-799.8046875,-809.5703125,475.5859375,-815.91796875
227.5390625,239.2578125,-4.8828125,521.484375
-1000.0,-1000.0,-1000.0,-1000.0
-271.97265625,-422.8515625,-884.765625,-622.0703125
-815.91796875,-888.671875,96.19140625,934.08203125
502.9296875,616.69921875,237.79296875,-957.03125
-1000.0,-975.5859375,-808.10546875,-413.0859375
-660.15625,-897.4609375,-984.86328125,-1000.0
920.8984375,623.53515625,-67.3828125,333.984375
-989.74609375,-885.25390625,478.515625,-774.90234375
-442.87109375,-263.18359375,-442.3828125,151.3671875
-1000.0,-1000.0,-1000.0,-1000.0
200.68359375,-23.4375,-409.1796875,-254.39453125
-769.04296875,-779.78515625,424.31640625,-797.36328125
87.40234375,187.98828125,-196.2890625,231.93359375
-1000.0,-1000.0,-1000.0,-1000.0
-251.46484375,-263.671875,-803.7109375,-324.70703125
-807.12890625,-806.640625,221.6796875,-851.07421875
237.3046875,292.48046875,60.546875,634.765625
-1000.0,-1000.0,-996.09375,-989.74609375
-371.09375,-559.08203125,-927.734375,-786.62109375
-854.00390625,-959.9609375,62.98828125,770.01953125
556.640625,693.84765625,424.8046875,-874.0234375
-1000.0,-859.86328125,-591.30859375,-226.5625
-864.2578125,-1000.0,-1000.0,-1000.0
676.7578125,329.58984375,-261.23046875,56.15234375
-912.59765625,-839.35546875,505.859375,-764.16015625
-326.171875,-178.7109375,-267.578125,200.1953125
-1000.0,-1000.0,-1000.0,-1000.0
-12.6953125,-179.19921875,-591.796875,-269.04296875
-779.78515625,-809.5703125,392.578125,-800.78125
193.359375,222.65625,-114.2578125,306.640625
-1000.0,-1000.0,-1000.0,-1000.0
-262.20703125,-307.6171875,-819.82421875,-448.2421875
-805.17578125,-822.75390625,301.7578125,-913.57421875
238.76953125,363.28125,148.92578125,742.67578125
-1000.0,-1000.0,-987.79296875,-849.609375
-472.16796875,-686.5234375,-974.12109375,-954.58984375
-927.24609375,904.296875,27.34375,550.78125
715.8203125,862.79296875,419.921875,-815.91796875
-873.046875,-665.0390625,-610.3515625,-88.8671875
-987.79296875,-1000.0,-1000.0,-1000.0
502.9296875,184.5703125,-283.203125,-28.3203125
-824.70703125,-791.9921875,436.5234375,-766.11328125
-135.7421875,4.39453125,-327.1484375,206.54296875
-1000.0,-1000.0,-1000.0,-1000.0
-83.49609375,-221.6796875,-545.41015625,-274.4140625
-781.25,-806.15234375,383.30078125,-808.59375
214.35546875,234.375,-82.51953125,457.03125
-1000.0,-1000.0,-1000.0,-1000.0
-272.94921875,-344.7265625,-887.20703125,-535.64453125
-808.59375,-843.75,133.30078125,-996.58203125
430.17578125,524.4140625,197.75390625,951.171875
-1000.0,-1000.0,-855.95703125,-557.6171875
-579.58984375,-792.48046875,-1000.0,-1000.0
-979.4921875,794.921875,-33.69140625,450.68359375
835.44921875,974.12109375,463.37890625,-841.30859375
-720.703125,-499.0234375,-509.27734375,-23.4375
-1000.0,-1000.0,-1000.0,-1000.0
340.8203125,67.87109375,-424.31640625,-181.640625
-797.8515625,-781.73828125,437.5,-786.62109375
-18.5546875,121.58203125,-177.24609375,221.6796875
-1000.0,-1000.0,-1000.0,-1000.0
-239.2578125,-253.90625,-757.8125,-272.94921875
-810.546875,-809.5703125,315.4296875,-816.89453125
235.83984375,243.65234375,30.2734375,527.34375
-1000.0,-1000.0,-1000.0,-1000.0
-271.97265625,-474.12109375,-890.13671875,-681.15234375
-875.9765625,-961.9140625,133.7890625,890.13671875
371.09375,506.8359375,306.640625,-960.9375
-1000.0,-963.37890625,-725.5859375,-380.859375
-776.3671875,-1000.0,-1000.0,-1000.0
799.31640625,463.37890625,-133.30078125,137.6953125
992.1875,-894.53125,482.91015625,-766.11328125
-489.74609375,-302.24609375,-474.12109375,148.4375
-1000.0,-1000.0,-1000.0,-1000.0
99.609375,-112.3046875,-450.1953125,-258.7890625
-777.83203125,-801.26953125,424.31640625,-801.26953125
95.703125,191.40625,-193.84765625,234.86328125
-1000.0,-1000.0,-1000.0,-1000.0
-250.9765625,-261.23046875,-760.7421875,-347.16796875
-807.6171875,-808.10546875,302.734375,-863.28125
237.3046875,307.12890625,87.40234375,660.15625
-1000.0,-1000.0,-1000.0,-970.21484375
-379.39453125,-576.66015625,-885.7421875,-793.45703125
-865.234375,-988.28125,140.13671875,757.8125
623.046875,773.92578125,329.1015625,-860.83984375
-997.0703125,-785.64453125,-677.734375,-183.59375
-845.21484375,-1000.0,-1000.0,-1000.0
692.87109375,347.16796875,-281.73828125,56.15234375
-864.2578125,-808.59375,408.69140625,-761.23046875
-225.5859375,-82.03125,-398.4375,199.70703125
-1000.0,-1000.0,-1000.0,-1000.0
27.34375,-162.59765625,-545.41015625,-272.94921875
-768.5546875,-796.38671875,394.04296875,-801.7578125
202.63671875,225.5859375,-88.37890625,385.25390625
-1000.0,-1000.0,-1000.0,-1000.0
-270.99609375,-293.9453125,-858.3984375,-452.1484375
-802.24609375,-818.84765625,183.59375,-928.7109375
338.37890625,434.08203125,196.2890625,825.68359375
-1000.0,-1000.0,-878.90625,-729.98046875
-488.76953125,-703.61328125,-1000.0,-1000.0
-909.1796875,934.08203125,-58.10546875,587.890625
701.66015625,813.4765625,405.76171875,-957.51953125
-890.625,-748.53515625,-585.44921875,-335.44921875
-1000.0,-1000.0,-1000.0,-1000.0
430.17578125,148.4375,-319.3359375,-80.56640625
-820.80078125,-797.8515625,537.59765625,-784.1796875
-130.859375,11.71875,-203.125,212.890625
-1000.0,-1000.0,-1000.0,-1000.0
-126.953125,-237.3046875,-657.71484375,-272.94921875
-789.55078125,-813.4765625,370.60546875,-809.5703125
219.7265625,239.74609375,-51.7578125,447.265625
-1000.0,-1000.0,-1000.0,-1000.0
-270.5078125,-424.8046875,-857.421875,-594.7265625
-809.08203125,-873.53515625,177.734375,973.6328125
389.16015625,498.046875,242.67578125,941.89453125
-1000.0,-1000.0,-820.80078125,-552.24609375
-654.296875,-908.69140625,-983.3984375,-1000.0
947.265625,616.2109375,20.5078125,289.55078125
892.578125,-967.28515625,467.28515625,-777.83203125
-625.9765625,-433.59375,-506.34765625,63.96484375
-1000.0,-1000.0,-1000.0,-1000.0
210.9375,-8.7890625,-430.6640625,-227.5390625
-786.1328125,-790.0390625,424.31640625,-797.36328125
-6.8359375,140.625,-245.60546875,229.00390625
-1000.0,-1000.0,-1000.0,-1000.0
-240.234375,-255.859375,-737.79296875,-277.34375
-809.5703125,-807.6171875,349.609375,-825.1953125
232.91015625,266.6015625,61.03515625,577.1484375
-1000.0,-1000.0,-1000.0,-1000.0
-278.3203125,-476.5625,-895.5078125,-696.77734375
-820.3125,-918.45703125,66.89453125,858.88671875
528.3203125,674.31640625,319.3359375,-899.4140625
-1000.0,-914.55078125,-683.10546875,-274.90234375
-699.21875,-964.35546875,-1000.0,-1000.0
864.74609375,530.76171875,-250.0,149.4140625
-939.453125,-850.09765625,451.66015625,-757.8125
-344.23828125,-191.40625,-377.44140625,192.3828125
-1000.0,-1000.0,-1000.0,-1000.0
115.234375,-77.1484375,-468.26171875,-270.01953125
-758.30078125,-777.83203125,526.85546875,-790.52734375
158.203125,187.5,-34.1796875,258.30078125
-1000.0,-1000.0,-1000.0,-1000.0
-174.8046875,-178.7109375,-799.8046875,-277.34375
-814.453125,-818.359375,328.125,-885.7421875
237.3046875,337.40234375,111.81640625,699.21875
-1000.0,-1000.0,-1000.0,-902.34375
-427.734375,-613.76953125,-949.70703125,-874.51171875
-884.765625,988.28125,35.15625,667.96875
624.0234375,774.90234375,374.51171875,-845.21484375
-977.05078125,-766.6015625,-625.9765625,-167.48046875
-932.12890625,-1000.0,-1000.0,-1000.0
584.47265625,255.37109375,-174.31640625,11.71875
-858.88671875,-812.5,526.85546875,-766.11328125
-238.76953125,-98.14453125,-407.71484375,203.61328125
-1000.0,-1000.0,-1000.0,-1000.0
-59.08203125,-209.47265625,-535.64453125,-271.97265625
-784.1796875,-812.5,421.875,-803.7109375
212.890625,235.83984375,-85.9375,370.60546875
-1000.0,-1000.0,-1000.0,-1000.0
-268.06640625,-350.09765625,-844.7265625,-515.13671875
-805.6640625,-839.84375,154.296875,-964.35546875
316.40625,420.8984375,143.5546875,843.26171875
-1000.0,-1000.0,-879.39453125,-711.9140625
-563.96484375,-771.484375,-980.95703125,-1000.0
-974.12109375,803.7109375,-100.5859375,448.2421875
773.4375,937.5,377.9296875,-799.31640625
-805.17578125,-571.77734375,-520.01953125,-41.015625
-1000.0,-1000.0,-1000.0,-1000.0
395.99609375,113.76953125,-365.234375,-105.46875
-803.7109375,-787.109375,430.6640625,-776.85546875
-67.3828125,65.4296875,-290.0390625,214.84375
-1000.0,-1000.0,-1000.0,-1000.0
-133.30078125,-242.1875,-637.6953125,-274.4140625
-785.15625,-808.10546875,405.76171875,-814.453125
218.75,237.3046875,45.8984375,520.5078125
-1000.0,-1000.0,-998.046875,-1000.0
-272.4609375,-388.671875,-881.8359375,-590.33203125
-811.03515625,-865.72265625,132.8125,970.21484375
451.66015625,570.80078125,417.96875,992.1875
-1000.0,-1000.0,-645.01953125,-466.30859375
-617.1875,-852.5390625,-1000.0,-1000.0
955.078125,685.05859375,-136.71875,280.76171875
959.47265625,-917.48046875,450.1953125,-770.5078125
-507.8125,-320.80078125,-490.234375,108.3984375
-1000.0,-1000.0,-1000.0,-1000.0
203.125,1.953125,-411.1328125,-232.421875
-773.4375,-781.73828125,476.07421875,-795.41015625
66.89453125,164.0625,-192.87109375,229.4921875
-1000.0,-1000.0,-1000.0,-1000.0
-249.0234375,-259.765625,-688.96484375,-306.15234375
-808.59375,-808.10546875,429.6875,-835.44921875
237.3046875,271.484375,18.06640625,586.42578125
-1000.0,-1000.0,-1000.0,-1000.0
-368.1640625,-540.0390625,-895.01953125,-747.0703125
-850.5859375,-944.82421875,104.4921875,815.91796875
536.1328125,656.25,308.10546875,-905.76171875
-1000.0,-905.76171875,-716.30859375,-292.96875
-804.19921875,-1000.0,-1000.0,-1000.0
773.92578125,382.8125,-227.05078125,97.16796875
-973.6328125,-854.4921875,461.9140625,-763.18359375
-426.7578125,-223.14453125,-395.5078125,195.80078125
-1000.0,-1000.0,-1000.0,-1000.0
29.296875,-157.71484375,-471.19140625,-268.06640625
-780.76171875,-806.640625,399.90234375,-800.29296875
160.15625,215.33203125,-164.55078125,284.1796875
-1000.0,-1000.0,-1000.0,-1000.0
-259.765625,-286.62109375,-833.49609375,-422.8515625
-799.8046875,-815.4296875,187.5,-907.71484375
220.703125,347.16796875,87.890625,747.55859375
-1000.0,-1000.0,-953.61328125,-861.328125
-369.62890625,-640.625,-932.6171875,-899.90234375
-920.41015625,950.1953125,-2.9296875,631.8359375
672.8515625,830.078125,443.84765625,-827.63671875
-933.10546875,-713.37890625,-508.7890625,-104.4921875
-933.10546875,-1000.0,-1000.0,-1000.0
572.75390625,260.7421875,-318.84765625,-4.8828125
-832.03125,-797.36328125,455.078125,-763.18359375
-152.34375,-25.87890625,-321.2890625,204.1015625
-1000.0,-1000.0,-1000.0,-1000.0
-23.4375,-202.63671875,-613.76953125,-273.4375
-770.5078125,-802.734375,428.7109375,-804.6875
207.03125,231.4453125,-24.90234375,416.015625
-1000.0,-1000.0,-1000.0,-1000.0
-271.97265625,-325.68359375,-840.33203125,-500.0
-806.15234375,-833.0078125,224.609375,-961.9140625
372.0703125,482.91015625,179.19921875,880.37109375
-1000.0,-1000.0,-909.66796875,-654.296875
-557.6171875,-764.6484375,-1000.0,-1000.0
-985.3515625,810.546875,42.96875,443.84765625
844.7265625,978.515625,499.0234375,-791.015625
-707.03125,-493.1640625,-559.5703125,8.7890625
-1000.0,-1000.0,-1000.0,-1000.0
396.484375,90.33203125,-242.67578125,-115.72265625
-804.19921875,-785.64453125,518.06640625,-773.92578125
-47.36328125,75.1953125,-287.109375,214.84375
-1000.0,-1000.0,-1000.0,-1000.0
-217.28515625,-248.046875,-614.2578125,-273.92578125
-806.15234375,-812.01171875,335.44921875,-815.4296875
230.46875,240.72265625,-46.38671875,509.27734375
-1000.0,-1000.0,-1000.0,-1000.0
-270.01953125,-464.84375,-910.15625,-649.90234375
-811.03515625,-894.53125,91.796875,934.08203125
434.5703125,549.31640625,235.3515625,993.1640625
-1000.0,-1000.0,-788.0859375,-464.84375
-683.59375,-950.1953125,-1000.0,-1000.0
914.0625,550.29296875,-219.23828125,195.80078125
930.6640625,-916.9921875,401.3671875,-768.06640625
-562.5,-346.6796875,-416.9921875,133.30078125
-1000.0,-1000.0,-1000.0,-1000.0
145.5078125,-56.640625,-475.09765625,-257.8125
-778.80859375,-792.96875,397.4609375,-800.78125
74.70703125,171.875,-146.97265625,233.3984375
-1000.0,-1000.0,-1000.0,-1000.0
-249.0234375,-259.765625,-809.08203125,-324.70703125
-808.10546875,-807.6171875,260.25390625,-844.7265625
236.81640625,286.1328125,51.26953125,609.375
-1000.0,-1000.0,-1000.0,-1000.0
-361.328125,-529.78515625,-927.734375,-756.8359375
-855.46875,-956.54296875,132.8125,791.9921875
594.7265625,732.421875,383.7890625,-872.0703125
-1000.0,-834.47265625,-696.77734375,-220.21484375
-802.734375,-1000.0,-1000.0,-1000.0
743.65234375,409.1796875,-175.29296875,105.46875
-873.53515625,-823.73046875,502.44140625,-758.30078125
-251.46484375,-127.44140625,-411.62109375,194.82421875
-1000.0,-1000.0,-1000.0,-1000.0
77.1484375,-143.5546875,-475.09765625,-270.5078125
-763.671875,-795.41015625,454.1015625,-799.31640625
198.2421875,223.6328125,-134.27734375,320.80078125
-1000.0,-1000.0,-1000.0,-1000.0
-267.08984375,-284.66796875,-786.1328125,-420.41015625
-803.22265625,-813.96484375,264.16015625,-906.25
272.4609375,384.27734375,145.01953125,762.6953125
-1000.0,-1000.0,-940.91796875,-833.49609375
-440.91796875,-659.1796875,-906.25,-917.96875
-990.72265625,901.3671875,45.41015625,614.2578125
563.96484375,794.43359375,310.546875,-828.125
-875.0,-672.8515625,-592.28515625,-97.65625
-985.83984375,-1000.0,-1000.0,-1000.0
500.48828125,185.546875,-327.1484375,-61.03515625
-834.47265625,-800.78125,416.9921875,-772.94921875
-157.2265625,-35.64453125,-340.33203125,210.9375
-1000.0,-1000.0,-1000.0,-1000.0
-125.0,-226.5625,-634.27734375,-272.94921875
-791.015625,-812.98828125,323.73046875,-806.640625
219.7265625,238.28125,-38.0859375,421.875
-1000.0,-1000.0,-1000.0,-1000.0
-268.06640625,-382.8125,-885.7421875,-552.734375
-806.15234375,-853.515625,138.671875,-988.28125
339.84375,464.84375,208.49609375,886.23046875
-1000.0,-1000.0,-859.375,-637.20703125
-584.9609375,-827.63671875,-1000.0,-1000.0
995.60546875,729.4921875,-29.296875,348.6328125
841.30859375,990.234375,473.14453125,-782.2265625
-690.91796875,-489.2578125,-505.859375,34.1796875
-1000.0,-1000.0,-1000.0,-1000.0
275.390625,45.41015625,-394.53125,-150.390625
-791.015625,-787.59765625,526.85546875,-780.2734375
-19.53125,108.3984375,-142.08984375,218.75
-1000.0,-1000.0,-1000.0,-1000.0
-206.0546875,-251.953125,-719.7265625,-273.4375
-800.78125,-808.59375,353.02734375,-818.359375
234.86328125,255.37109375,-0.48828125,544.43359375
-1000.0,-1000.0,-1000.0,-1000.0
-217.7734375,-389.6484375,-844.7265625,-630.37109375
-963.37890625,972.16796875,62.98828125,927.24609375
232.91015625,367.1875,101.5625,938.4765625
-1000.0,-943.359375,-764.16015625,-457.03125
-658.203125,-924.31640625,-1000.0,-1000.0
911.62109375,571.2890625,-25.87890625,233.3984375
-992.67578125,-879.8828125,512.20703125,-765.13671875
-437.5,-258.7890625,-461.42578125,154.78515625
-1000.0,-1000.0,-1000.0,-1000.0
164.0625,-46.38671875,-449.70703125,-261.23046875
-771.484375,-784.1796875,416.015625,-799.8046875
90.33203125,190.91796875,-195.3125,233.88671875
-1000.0,-1000.0,-1000.0,-1000.0
-251.46484375,-263.671875,-784.66796875,-335.44921875
-807.12890625,-807.12890625,280.2734375,-853.02734375
237.3046875,294.921875,78.125,630.37109375
-1000.0,-1000.0,-984.375,-984.86328125
-371.09375,-569.82421875,-924.31640625,-823.2421875
-855.95703125,-971.6796875,43.45703125,717.28515625
575.1953125,717.7734375,325.68359375,-859.375
-1000.0,-833.984375,-672.8515625,-194.82421875
-885.25390625,-1000.0,-1000.0,-1000.0
643.5546875,315.4296875,-306.15234375,31.73828125
-884.765625,-830.56640625,439.94140625,-765.13671875
-282.2265625,-152.34375,-339.35546875,202.1484375
-1000.0,-1000.0,-1000.0,-1000.0
-14.6484375,-184.08203125,-546.875,-270.01953125
-777.34375,-808.59375,483.3984375,-800.78125
207.51953125,227.05078125,-0.9765625,324.21875
-1000.0,-1000.0,-1000.0,-1000.0
-266.11328125,-306.15234375,-862.79296875,-458.49609375
-803.7109375,-822.265625,207.03125,-929.6875
270.5078125,388.18359375,131.34765625,793.9453125
-1000.0,-1000.0,-949.70703125,-790.0390625
-483.3984375,-692.87109375,-982.91015625,-963.8671875
-936.03515625,895.5078125,37.59765625,551.7578125
748.53515625,887.20703125,441.89453125,-815.4296875
-833.0078125,-630.859375,-583.984375,-79.58984375
-1000.0,-1000.0,-1000.0,-1000.0
482.421875,177.24609375,-209.9609375,-51.26953125
-823.2421875,-791.015625,537.59765625,-769.04296875
-133.30078125,13.671875,-359.375,208.984375
-1000.0,-1000.0,-1000.0,-1000.0
-103.02734375,-226.5625,-560.05859375,-275.87890625
-785.15625,-807.6171875,406.73828125,-801.26953125
216.796875,235.83984375,-83.0078125,441.89453125
-1000.0,-1000.0,-1000.0,-1000.0
-272.4609375,-363.76953125,-839.84375,-456.54296875
-808.10546875,-851.07421875,182.6171875,-988.28125
425.29296875,523.92578125,179.19921875,888.671875
-1000.0,-1000.0,-844.23828125,-629.39453125
-571.77734375,-812.01171875,-968.75,-1000.0
-997.0703125,748.53515625,-141.6015625,352.5390625
887.20703125,-971.6796875,385.7421875,-782.2265625
-621.09375,-418.45703125,-499.0234375,62.98828125
-1000.0,-1000.0,-1000.0,-1000.0
282.2265625,45.8984375,-428.7109375,-198.2421875
-791.50390625,-782.71484375,404.78515625,-789.0625
-17.08984375,126.46484375,-248.53515625,224.12109375
-1000.0,-1000.0,-1000.0,-1000.0
-239.2578125,-253.90625,-758.30078125,-272.94921875
-811.03515625,-809.5703125,279.296875,-819.3359375
234.86328125,245.60546875,52.24609375,545.41015625
-1000.0,-1000.0,-1000.0,-1000.0
-300.29296875,-495.1171875,-912.59765625,-698.73046875
-825.1953125,-916.9921875,119.140625,873.046875
487.79296875,608.88671875,346.19140625,-949.21875
-1000.0,-958.984375,-715.33203125,-365.72265625
-766.11328125,-997.55859375,-1000.0,-1000.0
806.640625,475.5859375,-199.21875,140.625
-980.46875,-881.34765625,525.87890625,-764.16015625
-441.89453125,-273.4375,-340.33203125,161.1328125
-1000.0,-1000.0,-1000.0,-1000.0
99.609375,-104.4921875,-452.1484375,-261.23046875
-776.3671875,-797.36328125,539.55078125,-800.29296875
95.703125,198.2421875,-95.21484375,239.2578125
-1000.0,-1000.0,-1000.0,-1000.0
-250.9765625,-263.18359375,-734.86328125,-348.14453125
-807.6171875,-807.6171875,374.51171875,-865.72265625
237.79296875,319.82421875,41.015625,671.875
-1000.0,-1000.0,-1000.0,-954.58984375
-382.8125,-581.0546875,-881.34765625,-805.6640625
-866.69921875,-989.74609375,107.421875,745.60546875
621.09375,774.4140625,324.70703125,-858.3984375
-990.234375,-779.296875,-666.50390625,-177.734375
-871.58203125,-1000.0,-1000.0,-1000.0
663.57421875,328.125,-252.9296875,42.96875
-866.2109375,-810.546875,476.5625,-762.20703125
-237.79296875,-89.84375,-365.234375,200.68359375
-1000.0,-1000.0,-1000.0,-1000.0
-5.859375,-177.734375,-535.64453125,-272.4609375
-774.4140625,-801.7578125,384.27734375,-801.7578125
206.54296875,228.515625,-55.6640625,376.46484375
-1000.0,-1000.0,-1000.0,-1000.0
-269.53125,-302.24609375,-853.515625,-460.9375
-803.22265625,-821.2890625,173.828125,-937.01171875
326.171875,424.31640625,152.83203125,837.890625
-1000.0,-1000.0,-892.578125,-720.703125
-508.30078125,-713.8671875,-982.91015625,-995.1171875
-943.359375,879.39453125,-31.25,516.6015625
763.18359375,900.390625,484.86328125,-807.6171875
-802.734375,-606.4453125,-476.07421875,-48.33984375
-1000.0,-1000.0,-1000.0,-1000.0
419.921875,139.6484375,-362.79296875,-95.703125
-817.3828125,-792.48046875,431.640625,-775.390625
-130.859375,17.578125,-340.8203125,213.8671875
-1000.0,-1000.0,-1000.0,-1000.0
-126.953125,-236.81640625,-649.4140625,-273.4375
-789.55078125,-812.01171875,391.11328125,-810.05859375
219.7265625,239.2578125,-13.18359375,466.796875
-1000.0,-1000.0,-1000.0,-1000.0
-270.99609375,-406.25,-875.48828125,-576.171875
-809.5703125,-867.1875,213.8671875,985.3515625
410.64453125,514.6484375,250.9765625,945.3125
-1000.0,-1000.0,-883.30078125,-538.0859375
-638.18359375,-875.0,-1000.0,-1000.0
958.984375,661.1328125,-60.546875,289.0625
896.484375,-959.47265625,455.56640625,-776.3671875
-613.76953125,-412.109375,-511.23046875,67.3828125
-1000.0,-1000.0,-1000.0,-1000.0
209.9609375,9.27734375,-397.4609375,-221.6796875
-784.66796875,-786.62109375,435.546875,-794.921875
3.41796875,141.11328125,-216.30859375,227.5390625
-1000.0,-1000.0,-1000.0,-1000.0
-241.2109375,-256.34765625,-628.90625,-271.97265625
-808.59375,-807.6171875,366.2109375,-822.265625
232.91015625,265.625,-13.18359375,567.3828125
-1000.0,-1000.0,-1000.0,-1000.0
-280.2734375,-479.98046875,-905.2734375,-698.73046875
-820.80078125,-916.9921875,70.3125,861.328125
525.390625,661.1328125,276.85546875,-912.59765625
-1000.0,-915.52734375,-743.1640625,-294.921875
-759.27734375,-995.60546875,-1000.0,-1000.0
842.7734375,512.6953125,-229.98046875,154.296875
979.00390625,-911.62109375,423.33984375,-815.91796875
-492.67578125,-300.78125,-431.640625,104.98046875
-1000.0,-1000.0,-1000.0,-1000.0
93.26171875,-99.609375,-505.859375,-268.5546875
-772.94921875,-794.43359375,416.50390625,-800.78125
157.2265625,206.0546875,-59.5703125,281.73828125
-1000.0,-1000.0,-1000.0,-1000.0
-259.765625,-265.625,-839.84375,-379.39453125
-805.6640625,-808.10546875,234.86328125,-878.41796875
238.28125,332.51953125,61.5234375,696.2890625
-1000.0,-1000.0,-1000.0,-910.15625
-435.546875,-619.62890625,-953.61328125,-875.48828125
-888.671875,981.93359375,67.87109375,665.0390625
625.0,776.3671875,421.875,-845.703125
-977.5390625,-768.06640625,-623.046875,-168.9453125
-932.12890625,-1000.0,-1000.0,-1000.0
583.984375,256.8359375,-239.2578125,7.32421875
-856.4453125,-810.05859375,533.203125,-766.6015625
-243.1640625,-89.84375,-338.8671875,204.1015625
-1000.0,-1000.0,-1000.0,-1000.0
-18.06640625,-201.171875,-507.8125,-271.97265625
-776.3671875,-809.08203125,466.796875,-803.22265625
208.0078125,233.3984375,-113.28125,373.53515625
-1000.0,-1000.0,-1000.0,-1000.0
-269.53125,-333.49609375,-830.078125,-496.09375
-805.17578125,-833.49609375,233.88671875,-955.078125
328.125,428.7109375,194.3359375,845.21484375
-1000.0,-1000.0,-913.0859375,-717.28515625
-552.24609375,-757.32421875,-939.94140625,-1000.0
-965.8203125,821.2890625,68.359375,496.58203125
770.01953125,937.01171875,381.8359375,-805.17578125
-804.19921875,-570.80078125,-601.07421875,-48.33984375
-1000.0,-1000.0,-1000.0,-1000.0
397.4609375,131.34765625,-359.86328125,-95.21484375
-806.15234375,-788.0859375,412.109375,-775.390625
-80.56640625,53.7109375,-312.01171875,213.8671875
-1000.0,-1000.0,-1000.0,-1000.0
-132.32421875,-242.1875,-701.171875,-274.4140625
-786.1328125,-809.5703125,280.76171875,-813.96484375
219.23828125,238.28125,4.39453125,508.7890625
-1000.0,-1000.0,-1000.0,-1000.0
-272.4609375,-399.90234375,-897.94921875,-600.09765625
-810.546875,-867.67578125,137.20703125,968.26171875
436.5234375,551.26953125,265.625,978.515625
-1000.0,-1000.0,-786.62109375,-488.76953125
-640.13671875,-874.0234375,-1000.0,-1000.0
953.61328125,659.1796875,-151.3671875,270.01953125
919.921875,-929.6875,458.984375,-770.5078125
-576.66015625,-356.4453125,-449.21875,105.46875
-1000.0,-1000.0,-1000.0,-1000.0
205.56640625,1.46484375,-416.015625,-229.4921875
-777.83203125,-784.1796875,545.8984375,-794.43359375
46.38671875,157.2265625,-79.58984375,229.00390625
-1000.0,-1000.0,-1000.0,-1000.0
-246.09375,-258.30078125,-757.8125,-300.29296875
-809.08203125,-808.10546875,395.99609375,-833.49609375
236.328125,269.53125,95.703125,583.984375
-1000.0,-1000.0,-1000.0,-1000.0
-350.09765625,-524.4140625,-881.8359375,-740.72265625
-844.7265625,-938.4765625,164.0625,820.80078125
533.203125,661.62109375,349.609375,-901.85546875
-1000.0,-906.73828125,-705.56640625,-292.48046875
-802.24609375,-1000.0,-1000.0,-1000.0
767.578125,414.55078125,-104.00390625,129.8828125
-953.61328125,-849.609375,445.3125,-759.765625
-401.85546875,-204.58984375,-462.890625,193.84765625
-1000.0,-1000.0,-1000.0,-1000.0
74.70703125,-142.08984375,-472.65625,-268.06640625
-772.4609375,-800.78125,363.76953125,-799.8046875
168.45703125,214.35546875,-173.33984375,281.25
-1000.0,-1000.0,-1000.0,-1000.0
-260.7421875,-276.85546875,-821.77734375,-411.1328125
-805.17578125,-811.5234375,252.44140625,-898.92578125
238.76953125,345.703125,135.7421875,729.98046875
-1000.0,-1000.0,-941.40625,-875.9765625
-450.1953125,-629.8828125,-944.3359375,-899.4140625
-897.4609375,964.84375,-14.6484375,629.8828125
638.671875,813.96484375,369.62890625,-829.1015625
-968.75,-729.98046875,-593.75,-113.28125
-928.7109375,-1000.0,-1000.0,-1000.0
575.68359375,262.6953125,-333.984375,-4.39453125
-840.8203125,-802.734375,442.87109375,-764.16015625
-180.6640625,-51.7578125,-311.5234375,204.58984375
-1000.0,-1000.0,-1000.0,-1000.0
-33.69140625,-206.0546875,-582.51953125,-272.94921875
-774.90234375,-806.640625,462.890625,-804.6875
208.49609375,232.91015625,21.484375,400.87890625
-1000.0,-1000.0,-1000.0,-1000.0
-270.01953125,-330.56640625,-880.859375,-512.20703125
-805.17578125,-833.0078125,223.14453125,-965.33203125
339.84375,458.984375,179.19921875,866.2109375
-1000.0,-1000.0,-933.10546875,-683.59375
-555.17578125,-763.671875,-997.0703125,-1000.0
-976.07421875,813.4765625,-8.30078125,460.44921875
804.6875,958.49609375,471.6796875,-795.41015625
-760.7421875,-528.3203125,-537.109375,-6.8359375
-1000.0,-1000.0,-1000.0,-1000.0
395.99609375,97.65625,-225.5859375,-114.74609375
-804.19921875,-786.62109375,549.8046875,-775.390625
-56.640625,71.2890625,-341.30859375,214.84375
-1000.0,-1000.0,-1000.0,-1000.0
-180.6640625,-247.55859375,-620.1171875,-273.92578125
-796.875,-811.03515625,385.7421875,-814.453125
225.5859375,239.74609375,-30.76171875,505.37109375
-1000.0,-1000.0,-1000.0,-1000.0
-270.99609375,-435.546875,-888.18359375,-630.859375
-811.03515625,-882.8125,98.14453125,942.87109375
436.5234375,556.640625,261.23046875,999.51171875
-1000.0,-1000.0,-754.39453125,-458.0078125
-656.25,-918.45703125,-995.1171875,-1000.0
933.10546875,594.7265625,-202.1484375,233.3984375
950.68359375,-913.0859375,399.90234375,-768.06640625
-533.69140625,-332.51953125,-439.453125,114.2578125
-1000.0,-1000.0,-1000.0,-1000.0
187.98828125,-30.2734375,-469.7265625,-249.0234375
-773.92578125,-786.62109375,416.50390625,-800.29296875
75.1953125,170.8984375,-198.2421875,232.91015625
-1000.0,-1000.0,-1000.0,-1000.0
-250.0,-260.25390625,-793.45703125,-319.3359375
-808.10546875,-807.6171875,240.72265625,-842.7734375
236.81640625,280.76171875,64.453125,608.88671875
-1000.0,-1000.0,-1000.0,-1000.0
-361.328125,-534.1796875,-923.33984375,-756.34765625
-851.07421875,-949.70703125,70.80078125,794.43359375
558.10546875,695.80078125,480.95703125,-875.0
-1000.0,-872.55859375,-536.1328125,-225.5859375
-798.33984375,-1000.0,-1000.0,-1000.0
749.51171875,401.3671875,-247.0703125,95.21484375
-897.94921875,-834.47265625,473.14453125,-759.27734375
-293.45703125,-160.15625,-395.99609375,196.2890625
-1000.0,-1000.0,-1000.0,-1000.0
56.15234375,-149.4140625,-504.39453125,-269.53125
-768.06640625,-799.8046875,445.80078125,-799.8046875
202.1484375,222.16796875,-123.046875,307.6171875
-1000.0,-1000.0,-1000.0,-1000.0
-246.58203125,-271.484375,-768.5546875,-420.41015625
-860.3515625,-872.0703125,291.50390625,-910.15625
150.390625,275.87890625,61.03515625,738.28125
-1000.0,-1000.0,-958.984375,-851.07421875
-463.8671875,-658.69140625,-937.01171875,-917.96875
-918.9453125,933.59375,43.9453125,610.83984375
692.3828125,841.796875,400.390625,-827.1484375
-913.0859375,-688.96484375,-595.21484375,-110.83984375
-943.84765625,-1000.0,-1000.0,-1000.0
565.91796875,213.37890625,-278.80859375,-23.4375
-836.9140625,-798.33984375,491.69921875,-767.08984375
-153.3203125,-31.73828125,-327.63671875,206.54296875
-1000.0,-1000.0,-1000.0,-1000.0
-86.9140625,-218.75,-598.6328125,-273.4375
-783.203125,-809.5703125,330.078125,-805.6640625
214.84375,235.3515625,-39.55078125,416.9921875
-1000.0,-1000.0,-1000.0,-1000.0
-269.53125,-355.95703125,-862.79296875,-528.3203125
-805.6640625,-844.23828125,161.1328125,-988.28125
354.4921875,476.07421875,209.9609375,918.45703125
-1000.0,-1000.0,-827.1484375,-602.5390625
-562.98828125,-795.8984375,-997.0703125,-1000.0
-993.1640625,770.5078125,-106.4453125,413.0859375
853.02734375,987.3046875,483.88671875,-786.62109375
-687.98828125,-487.3046875,-430.17578125,37.109375
-1000.0,-1000.0,-1000.0,-1000.0
348.6328125,71.77734375,-404.78515625,-162.59765625
-795.41015625,-784.66796875,453.61328125,-782.71484375
-20.99609375,99.12109375,-264.6484375,220.21484375
-1000.0,-1000.0,-1000.0,-1000.0
-209.9609375,-250.9765625,-740.234375,-273.4375
-801.7578125,-809.5703125,277.34375,-816.40625
228.515625,239.74609375,14.6484375,522.4609375
-1000.0,-1000.0,-1000.0,-1000.0
-271.484375,-449.21875,-903.80859375,-635.25390625
-813.96484375,-895.5078125,186.5234375,932.12890625
474.12109375,595.21484375,320.80078125,-974.12109375
-1000.0,-982.91015625,-796.875,-402.34375
-659.1796875,-939.94140625,-1000.0,-1000.0
924.8046875,566.40625,-45.8984375,195.80078125
987.3046875,-893.06640625,515.13671875,-764.6484375
-464.84375,-290.52734375,-503.41796875,141.11328125
-1000.0,-1000.0,-1000.0,-1000.0
142.578125,-58.10546875,-425.29296875,-258.7890625
-773.92578125,-788.57421875,434.5703125,-799.8046875
92.28515625,187.5,-178.7109375,232.91015625
-1000.0,-1000.0,-1000.0,-1000.0
-250.9765625,-262.20703125,-720.21484375,-317.87109375
-807.6171875,-807.6171875,286.62109375,-843.75
237.3046875,294.43359375,3.41796875,613.28125
-1000.0,-1000.0,-1000.0,-1000.0
-371.09375,-562.01171875,-928.7109375,-808.59375
-858.88671875,-970.703125,11.71875,732.91015625
592.7734375,730.95703125,331.0546875,-861.81640625
-1000.0,-827.63671875,-662.59765625,-205.56640625
-839.35546875,-1000.0,-1000.0,-1000.0
696.2890625,348.6328125,-278.80859375,62.01171875
-871.09375,-823.2421875,457.03125,-762.20703125
-244.140625,-132.32421875,-331.54296875,199.70703125
-1000.0,-1000.0,-1000.0,-1000.0
10.7421875,-166.9921875,-576.66015625,-271.484375
-772.4609375,-801.7578125,407.2265625,-800.78125
205.078125,227.5390625,-19.53125,349.609375
-1000.0,-1000.0,-1000.0,-1000.0
-267.578125,-297.36328125,-869.62890625,-449.70703125
-803.22265625,-818.84765625,210.9375,-922.36328125
284.66796875,395.5078125,170.41015625,792.48046875
-1000.0,-1000.0,-942.3828125,-793.45703125
-467.7734375,-679.6875,-985.83984375,-948.73046875
-924.31640625,912.109375,38.57421875,575.68359375
740.234375,878.90625,477.5390625,-820.3125
-840.8203125,-637.6953125,-571.2890625,-83.0078125
-997.55859375,-1000.0,-1000.0,-1000.0
498.53515625,184.5703125,-293.9453125,-62.5
-825.68359375,-792.96875,468.26171875,-771.484375
-131.8359375,1.46484375,-355.95703125,210.44921875
-1000.0,-1000.0,-1000.0,-1000.0
-116.2109375,-228.02734375,-588.8671875,-273.4375
-787.59765625,-809.5703125,396.484375,-806.640625
218.26171875,237.3046875,-58.59375,433.59375
-1000.0,-1000.0,-1000.0,-1000.0
-270.99609375,-377.44140625,-826.66015625,-531.73828125
-808.10546875,-854.4921875,218.75,-990.72265625
398.4375,501.46484375,245.1171875,926.7578125
-1000.0,-1000.0,-840.33203125,-577.1484375
-600.5859375,-843.26171875,-964.84375,-1000.0
980.95703125,706.54296875,-57.12890625,371.09375
888.671875,-977.5390625,411.1328125,-783.69140625
-626.46484375,-438.4765625,-491.69921875,51.26953125
-1000.0,-1000.0,-1000.0,-1000.0
263.671875,38.57421875,-428.7109375,-196.77734375
-790.52734375,-784.66796875,444.3359375,-790.0390625
-16.6015625,125.48828125,-184.5703125,224.12109375
-1000.0,-1000.0,-1000.0,-1000.0
-239.2578125,-254.39453125,-738.76953125,-272.4609375
-809.5703125,-809.08203125,266.6015625,-821.2890625
232.91015625,252.9296875,25.87890625,561.5234375
-1000.0,-1000.0,-1000.0,-1000.0
-271.484375,-475.09765625,-931.640625,-693.84765625
-816.89453125,-911.1328125,100.5859375,875.48828125
509.765625,630.37109375,333.0078125,-935.05859375
-1000.0,-944.3359375,-720.21484375,-336.9140625
-736.81640625,-983.3984375,-1000.0,-1000.0
870.1171875,529.296875,-223.14453125,168.45703125
960.44921875,-925.78125,417.96875,-817.87109375
-520.99609375,-333.49609375,-446.2890625,82.03125
-1000.0,-1000.0,-1000.0,-1000.0
107.421875,-90.8203125,-464.84375,-263.18359375
-776.3671875,-794.921875,547.36328125,-802.24609375
112.79296875,200.1953125,-36.62109375,241.69921875
-1000.0,-1000.0,-1000.0,-1000.0
-253.41796875,-264.16015625,-815.91796875,-356.93359375
-807.12890625,-807.6171875,324.21875,-870.1171875
237.3046875,320.3125,97.65625,675.78125
-1000.0,-1000.0,-1000.0,-944.3359375
-393.5546875,-587.890625,-925.78125,-829.1015625
-870.60546875,-991.2109375,76.171875,719.23828125
619.62890625,762.6953125,424.8046875,-854.98046875
-984.86328125,-786.62109375,-613.76953125,-181.15234375
-897.4609375,-1000.0,-1000.0,-1000.0
629.8828125,301.7578125,-184.08203125,41.50390625
-863.28125,-812.98828125,465.33203125,-762.6953125
-242.1875,-102.5390625,-378.90625,201.171875
-1000.0,-1000.0,-1000.0,-1000.0
-15.625,-185.05859375,-566.40625,-271.484375
-775.87890625,-805.17578125,347.16796875,-801.7578125
207.51953125,230.46875,-107.91015625,355.46875
-1000.0,-1000.0,-1000.0,-1000.0
-269.04296875,-312.5,-840.8203125,-470.703125
-804.19921875,-824.70703125,233.3984375,-942.3828125
315.4296875,416.50390625,190.4296875,829.58984375
-1000.0,-1000.0,-868.1640625,-725.09765625
-521.484375,-724.12109375,-969.7265625,-1000.0
-952.63671875,861.81640625,-105.46875,479.00390625
767.08984375,913.0859375,406.25,-802.24609375
-806.15234375,-595.21484375,-513.18359375,-49.8046875
-1000.0,-1000.0,-1000.0,-1000.0
427.24609375,145.99609375,-375.48828125,-79.1015625
-815.4296875,-790.52734375,444.82421875,-771.97265625
-116.2109375,28.80859375,-255.859375,211.9140625
-1000.0,-1000.0,-1000.0,-1000.0
-128.41796875,-237.3046875,-651.85546875,-273.92578125
-788.57421875,-810.546875,412.59765625,-811.5234375
219.7265625,238.28125,42.48046875,484.375
-1000.0,-1000.0,-1000.0,-1000.0
-272.4609375,-390.13671875,-906.73828125,-583.984375
-810.05859375,-862.3046875,163.0859375,977.5390625
436.5234375,535.64453125,248.53515625,964.84375
-1000.0,-1000.0,-842.7734375,-512.6953125
-631.8359375,-865.234375,-1000.0,-1000.0
968.26171875,672.8515625,-76.66015625,296.875
893.5546875,-941.89453125,506.34765625,-773.92578125
-613.28125,-379.8828125,-449.21875,85.44921875
-1000.0,-1000.0,-1000.0,-1000.0
207.51953125,8.30078125,-301.26953125,-217.28515625
-781.73828125,-784.66796875,549.31640625,-791.9921875
25.390625,148.92578125,-264.6484375,226.5625
-1000.0,-1000.0,-1000.0,-1000.0
-243.65234375,-257.32421875,-606.93359375,-275.390625
-809.5703125,-808.59375,467.28515625,-823.73046875
236.328125,266.11328125,-9.765625,570.80078125
-1000.0,-1000.0,-1000.0,-1000.0
-335.44921875,-513.671875,-917.48046875,-733.3984375
-839.35546875,-932.6171875,71.77734375,826.171875
530.76171875,657.2265625,291.015625,-902.83203125
-1000.0,-913.57421875,-722.16796875,-291.015625
-804.19921875,-1000.0,-1000.0,-1000.0
771.484375,437.01171875,-224.12109375,127.44140625
-965.33203125,-854.00390625,418.9453125,-760.25390625
-428.22265625,-216.796875,-404.296875,188.4765625
-1000.0,-1000.0,-1000.0,-1000.0
94.23828125,-124.51171875,-535.64453125,-267.578125
-771.97265625,-797.8515625,389.16015625,-798.828125
154.78515625,209.9609375,-136.23046875,286.62109375
-1000.0,-1000.0,-1000.0,-1000.0
-259.27734375,-271.484375,-829.1015625,-392.08984375
-806.15234375,-810.05859375,228.02734375,-887.6953125
238.76953125,339.35546875,142.578125,716.30859375
-1000.0,-1000.0,-940.4296875,-886.71875
-443.84765625,-624.0234375,-969.7265625,-893.5546875
-892.08984375,972.65625,9.27734375,644.04296875
626.953125,801.26953125,458.984375,-839.35546875
-979.4921875,-744.140625,-562.5,-155.76171875
-927.734375,-1000.0,-1000.0,-1000.0
576.66015625,260.25390625,-307.12890625,5.37109375
-842.28515625,-803.22265625,547.36328125,-765.625
-191.89453125,-56.640625,-229.00390625,204.58984375
-1000.0,-1000.0,-1000.0,-1000.0
-20.01953125,-199.21875,-584.47265625,-272.94921875
-772.4609375,-805.17578125,507.8125,-804.19921875
207.03125,231.93359375,6.8359375,396.97265625
-1000.0,-1000.0,-1000.0,-1000.0
-270.5078125,-328.125,-814.453125,-499.0234375
-805.17578125,-832.03125,279.78515625,-957.51953125
339.84375,454.1015625,112.79296875,858.3984375
-1000.0,-1000.0,-942.3828125,-686.5234375
-555.6640625,-761.71875,-975.5859375,-1000.0
-974.609375,815.4296875,-110.3515625,451.171875
797.8515625,955.56640625,378.90625,-796.875
-769.04296875,-534.1796875,-539.55078125,-22.4609375
-1000.0,-1000.0,-1000.0,-1000.0
395.99609375,104.00390625,-345.21484375,-110.3515625
-804.6875,-787.109375,459.9609375,-775.87890625
-61.03515625,65.91796875,-284.1796875,214.84375
-1000.0,-1000.0,-1000.0,-1000.0
-175.29296875,-247.0703125,-664.55078125,-273.92578125
-795.8984375,-811.03515625,305.17578125,-814.453125
224.609375,239.74609375,-17.08984375,507.32421875
-1000.0,-1000.0,-1000.0,-1000.0
-270.99609375,-433.10546875,-900.87890625,-625.0
-811.03515625,-881.8359375,125.9765625,946.77734375
436.5234375,553.7109375,277.34375,997.55859375
-1000.0,-1000.0,-760.25390625,-458.49609375
-658.203125,-921.38671875,-1000.0,-1000.0
938.4765625,593.75,-165.52734375,233.88671875
934.5703125,-920.41015625,494.140625,-767.578125
-556.640625,-346.6796875,-369.140625,124.0234375
-1000.0,-1000.0,-1000.0,-1000.0
181.15234375,-35.64453125,-490.234375,-251.46484375
-776.3671875,-788.0859375,491.2109375,-799.31640625
69.3359375,170.41015625,-91.796875,232.421875
-1000.0,-1000.0,-1000.0,-1000.0
-249.0234375,-259.765625,-786.1328125,-316.89453125
-808.59375,-807.12890625,266.6015625,-841.30859375
236.81640625,281.25,30.2734375,602.5390625
-1000.0,-1000.0,-1000.0,-1000.0
-360.83984375,-532.71484375,-937.98828125,-756.34765625
-852.05078125,-951.171875,123.53515625,795.41015625
563.4765625,705.078125,371.09375,-877.44140625
-1000.0,-864.2578125,-728.02734375,-241.2109375
-799.31640625,-1000.0,-1000.0,-1000.0
748.53515625,409.1796875,-121.09375,110.3515625
-894.53125,-833.49609375,513.18359375,-758.7890625
-290.0390625,-157.71484375,-456.54296875,196.77734375
-1000.0,-1000.0,-1000.0,-1000.0
71.2890625,-143.5546875,-508.30078125,-251.46484375
-765.625,-797.8515625,402.83203125,-856.4453125
198.73046875,219.7265625,-115.72265625,222.65625
-1000.0,-1000.0,-1000.0,-1000.0
-265.13671875,-286.62109375,-812.01171875,-429.6875
-803.7109375,-814.453125,188.4765625,-908.69140625
238.76953125,364.2578125,92.7734375,746.09375
-1000.0,-1000.0,-945.80078125,-854.98046875
-463.8671875,-659.1796875,-977.05078125,-920.8984375
-915.52734375,936.03515625,-67.87109375,606.93359375
687.5,839.84375,355.46875,-828.125
-914.0625,-689.453125,-604.98046875,-110.83984375
-952.63671875,-1000.0,-1000.0,-1000.0
551.7578125,207.03125,-316.89453125,-38.57421875
-836.9140625,-798.828125,470.21484375,-769.53125
-156.73828125,-33.69140625,-277.83203125,208.49609375
-1000.0,-1000.0,-1000.0,-1000.0
-96.6796875,-220.21484375,-656.73828125,-273.4375
-785.15625,-810.05859375,368.1640625,-806.15234375
216.30859375,236.328125,9.27734375,421.38671875
-1000.0,-1000.0,-1000.0,-1000.0
-269.53125,-363.28125,-873.53515625,-533.203125
-805.6640625,-847.16796875,165.52734375,-979.00390625
351.5625,476.07421875,233.88671875,886.23046875
-1000.0,-1000.0,-851.5625,-644.53125
-562.01171875,-799.31640625,-1000.0,-1000.0
-993.1640625,764.16015625,-15.625,397.94921875
852.5390625,992.1875,499.51171875,-787.59765625
-681.15234375,-478.515625,-512.20703125,26.3671875
-1000.0,-1000.0,-1000.0,-1000.0
322.265625,62.01171875,-349.609375,-155.2734375
-793.9453125,-785.15625,491.69921875,-781.73828125
-19.53125,104.98046875,-291.015625,219.7265625
-1000.0,-1000.0,-1000.0,-1000.0
-219.23828125,-251.46484375,-685.546875,-273.4375
-804.19921875,-809.5703125,355.95703125,-816.89453125
229.98046875,242.67578125,11.71875,529.78515625
-1000.0,-1000.0,-1000.0,-1000.0
-271.484375,-458.984375,-840.8203125,-630.859375
-815.4296875,-901.85546875,224.609375,931.15234375
490.72265625,609.375,315.4296875,-961.9140625
-1000.0,-970.703125,-770.99609375,-386.71875
-663.57421875,-949.21875,-990.234375,-1000.0
916.015625,553.7109375,-118.1640625,227.5390625
-992.67578125,-883.7890625,416.50390625,-764.16015625
-435.546875,-274.4140625,-454.1015625,146.484375
-1000.0,-1000.0,-1000.0,-1000.0
147.4609375,-57.12890625,-490.72265625,-259.765625
-772.4609375,-787.109375,401.85546875,-800.29296875
91.796875,189.453125,-187.01171875,233.88671875
-1000.0,-1000.0,-1000.0,-1000.0
-250.9765625,-263.18359375,-787.59765625,-335.9375
-807.12890625,-807.6171875,269.53125,-858.3984375
237.3046875,296.875,124.0234375,653.3203125
-1000.0,-1000.0,-937.98828125,-967.7734375
-371.09375,-566.40625,-960.9375,-813.4765625
-857.421875,-970.703125,15.13671875,738.28125
583.984375,722.65625,461.42578125,-864.74609375
-1000.0,-833.0078125,-554.19921875,-207.03125
-861.328125,-1000.0,-1000.0,-1000.0
669.921875,332.03125,-276.3671875,43.9453125
-875.48828125,-825.68359375,448.2421875,-764.16015625
-256.8359375,-138.18359375,-367.1875,201.171875
-1000.0,-1000.0,-1000.0,-1000.0
-5.37109375,-176.26953125,-542.96875,-270.5078125
-774.90234375,-805.17578125,519.53125,-800.78125
206.54296875,229.4921875,8.30078125,324.70703125
-1000.0,-1000.0,-1000.0,-1000.0
-267.578125,-302.24609375,-848.14453125,-446.77734375
-803.22265625,-820.80078125,285.15625,-925.78125
286.62109375,398.4375,168.9453125,795.8984375
-1000.0,-1000.0,-970.21484375,-789.55078125
-481.4453125,-689.453125,-964.84375,-952.1484375
-932.6171875,900.87890625,-31.73828125,569.82421875
747.55859375,888.18359375,424.31640625,-816.40625
-829.1015625,-625.0,-547.8515625,-76.171875
-1000.0,-1000.0,-1000.0,-1000.0
471.6796875,169.43359375,-239.74609375,-46.38671875
-822.75390625,-791.50390625,455.56640625,-768.06640625
-132.32421875,12.6953125,-348.14453125,208.49609375
-1000.0,-1000.0,-1000.0,-1000.0
-115.234375,-229.00390625,-649.4140625,-274.4140625
-787.109375,-808.59375,328.61328125,-809.08203125
218.26171875,236.81640625,-40.0390625,461.9140625
-1000.0,-1000.0,-1000.0,-1000.0
-271.97265625,-374.51171875,-879.39453125,-551.7578125
-809.08203125,-854.4921875,164.0625,998.046875
416.015625,515.625,243.65234375,943.359375
-1000.0,-1000.0,-796.875,-538.0859375
-605.95703125,-843.75,-999.0234375,-1000.0
979.98046875,706.54296875,-163.57421875,309.5703125
891.6015625,-967.7734375,430.6640625,-776.3671875
-617.1875,-419.921875,-456.54296875,70.80078125
